
Vernier Format 2
act7_187.txt 6/30/116 15:2:33
Run 8
Wavelength	Intensity	
W	I	
nm	rel	

380.50	0.016	
381.30	0.016	
382.20	0.016	
383.10	0.016	
384.00	0.016	
384.90	0.016	
385.80	0.016	
386.70	0.016	
387.60	0.016	
388.50	0.016	
389.40	0.016	
390.20	0.015	
391.10	0.016	
392.00	0.016	
392.90	0.016	
393.80	0.016	
394.70	0.016	
395.60	0.015	
396.50	0.016	
397.40	0.016	
398.30	0.016	
399.10	0.016	
400.00	0.016	
400.90	0.016	
401.80	0.016	
402.70	0.016	
403.60	0.016	
404.50	0.016	
405.40	0.016	
406.30	0.016	
407.20	0.016	
408.00	0.016	
408.90	0.016	
409.80	0.016	
410.70	0.016	
411.60	0.017	
412.50	0.017	
413.40	0.017	
414.30	0.017	
415.20	0.017	
416.00	0.017	
416.90	0.017	
417.80	0.017	
418.70	0.017	
419.60	0.017	
420.50	0.017	
421.40	0.016	
422.30	0.016	
423.20	0.016	
424.10	0.016	
424.90	0.016	
425.80	0.016	
426.70	0.016	
427.60	0.017	
428.50	0.017	
429.40	0.017	
430.30	0.017	
431.20	0.017	
432.10	0.017	
433.00	0.017	
433.80	0.017	
434.70	0.017	
435.60	0.017	
436.50	0.017	
437.40	0.017	
438.30	0.017	
439.20	0.017	
440.10	0.017	
441.00	0.017	
441.90	0.017	
442.70	0.017	
443.60	0.017	
444.50	0.017	
445.40	0.017	
446.30	0.017	
447.20	0.017	
448.10	0.018	
449.00	0.017	
449.90	0.017	
450.80	0.017	
451.60	0.017	
452.50	0.017	
453.40	0.017	
454.30	0.017	
455.20	0.017	
456.10	0.017	
457.00	0.017	
457.90	0.017	
458.80	0.017	
459.60	0.017	
460.50	0.017	
461.40	0.018	
462.30	0.018	
463.20	0.018	
464.10	0.018	
465.00	0.018	
465.90	0.018	
466.80	0.018	
467.70	0.018	
468.50	0.018	
469.40	0.018	
470.30	0.018	
471.20	0.018	
472.10	0.018	
473.00	0.018	
473.90	0.018	
474.80	0.018	
475.70	0.018	
476.60	0.018	
477.40	0.018	
478.30	0.018	
479.20	0.018	
480.10	0.018	
481.00	0.018	
481.90	0.018	
482.80	0.018	
483.70	0.018	
484.60	0.019	
485.50	0.018	
486.30	0.018	
487.20	0.018	
488.10	0.018	
489.00	0.018	
489.90	0.018	
490.80	0.018	
491.70	0.018	
492.60	0.018	
493.50	0.018	
494.40	0.018	
495.20	0.018	
496.10	0.019	
497.00	0.019	
497.90	0.019	
498.80	0.019	
499.70	0.019	
500.60	0.019	
501.50	0.019	
502.40	0.019	
503.20	0.019	
504.10	0.019	
505.00	0.019	
505.90	0.019	
506.80	0.020	
507.70	0.020	
508.60	0.020	
509.50	0.020	
510.40	0.020	
511.30	0.020	
512.20	0.020	
513.00	0.020	
513.80	0.020	
514.60	0.021	
515.50	0.021	
516.30	0.021	
517.10	0.021	
517.90	0.021	
518.80	0.021	
519.60	0.021	
520.40	0.022	
521.20	0.022	
522.10	0.022	
522.90	0.022	
523.70	0.022	
524.50	0.022	
525.40	0.022	
526.20	0.022	
527.00	0.022	
527.80	0.022	
528.70	0.022	
529.50	0.022	
530.30	0.023	
531.10	0.023	
532.00	0.023	
532.80	0.022	
533.60	0.022	
534.50	0.022	
535.30	0.022	
536.10	0.022	
536.90	0.022	
537.80	0.022	
538.60	0.022	
539.40	0.022	
540.20	0.022	
541.10	0.023	
541.90	0.023	
542.70	0.022	
543.50	0.022	
544.40	0.022	
545.20	0.022	
546.00	0.022	
546.80	0.022	
547.70	0.022	
548.50	0.022	
549.30	0.022	
550.10	0.022	
551.00	0.022	
551.80	0.022	
552.60	0.022	
553.50	0.022	
554.30	0.022	
555.10	0.022	
555.90	0.022	
556.80	0.022	
557.60	0.022	
558.40	0.022	
559.20	0.022	
560.10	0.022	
560.90	0.022	
561.70	0.022	
562.50	0.022	
563.40	0.022	
564.20	0.022	
565.00	0.022	
565.80	0.022	
566.70	0.023	
567.50	0.023	
568.30	0.023	
569.10	0.023	
570.00	0.022	
570.80	0.022	
571.60	0.022	
572.40	0.022	
573.30	0.022	
574.10	0.022	
574.90	0.022	
575.80	0.021	
576.60	0.021	
577.40	0.021	
578.20	0.021	
579.10	0.021	
579.90	0.021	
580.70	0.021	
581.50	0.021	
582.40	0.021	
583.20	0.021	
584.00	0.020	
584.80	0.020	
585.70	0.020	
586.50	0.020	
587.30	0.020	
588.10	0.020	
588.90	0.020	
589.60	0.020	
590.40	0.019	
591.10	0.019	
591.90	0.019	
592.60	0.019	
593.40	0.019	
594.10	0.019	
594.90	0.019	
595.60	0.019	
596.40	0.019	
597.10	0.018	
597.90	0.018	
598.60	0.018	
599.40	0.018	
600.10	0.018	
600.90	0.017	
601.60	0.017	
602.40	0.017	
603.10	0.017	
603.90	0.017	
604.60	0.017	
605.40	0.018	
606.10	0.018	
606.90	0.018	
607.70	0.017	
608.40	0.017	
609.20	0.017	
609.90	0.017	
610.70	0.016	
611.40	0.016	
612.20	0.017	
612.90	0.016	
613.70	0.016	
614.40	0.017	
615.20	0.017	
615.90	0.017	
616.70	0.017	
617.40	0.017	
618.20	0.017	
618.90	0.017	
619.70	0.017	
620.40	0.017	
621.20	0.017	
621.90	0.016	
622.70	0.016	
623.40	0.016	
624.20	0.016	
624.90	0.016	
625.70	0.016	
626.40	0.016	
627.20	0.016	
627.90	0.016	
628.70	0.016	
629.40	0.015	
630.20	0.015	
630.90	0.015	
631.70	0.016	
632.40	0.016	
633.20	0.015	
633.90	0.016	
634.70	0.016	
635.40	0.016	
636.20	0.016	
636.90	0.016	
637.70	0.016	
638.40	0.016	
639.20	0.016	
639.90	0.016	
640.70	0.016	
641.40	0.016	
642.20	0.016	
642.90	0.016	
643.70	0.016	
644.50	0.016	
645.20	0.016	
646.00	0.016	
646.70	0.016	
647.50	0.016	
648.20	0.016	
649.00	0.015	
649.70	0.015	
650.50	0.015	
651.20	0.015	
652.00	0.015	
652.70	0.015	
653.50	0.015	
654.20	0.015	
655.00	0.016	
655.70	0.016	
656.50	0.016	
657.20	0.016	
658.00	0.016	
658.70	0.016	
659.50	0.016	
660.20	0.016	
661.00	0.016	
661.70	0.016	
662.50	0.016	
663.20	0.016	
664.00	0.016	
664.70	0.016	
665.50	0.016	
666.20	0.016	
667.00	0.015	
667.80	0.015	
668.50	0.015	
669.30	0.015	
670.00	0.015	
670.80	0.015	
671.60	0.016	
672.30	0.016	
673.10	0.016	
673.90	0.016	
674.60	0.016	
675.40	0.016	
676.20	0.016	
676.90	0.016	
677.70	0.016	
678.50	0.016	
679.20	0.016	
680.00	0.016	
680.70	0.016	
681.50	0.016	
682.30	0.016	
683.00	0.016	
683.80	0.016	
684.60	0.016	
685.30	0.016	
686.10	0.016	
686.90	0.016	
687.60	0.016	
688.40	0.016	
689.20	0.016	
689.90	0.016	
690.70	0.016	
691.50	0.016	
692.20	0.016	
693.00	0.015	
693.70	0.015	
694.50	0.016	
695.30	0.015	
696.00	0.015	
696.80	0.015	
697.60	0.015	
698.30	0.016	
699.10	0.016	
699.90	0.016	
700.60	0.016	
701.40	0.016	
702.20	0.016	
702.90	0.016	
703.70	0.016	
704.50	0.016	
705.20	0.016	
706.00	0.016	
706.80	0.016	
707.50	0.016	
708.30	0.016	
709.10	0.016	
709.90	0.016	
710.70	0.016	
711.50	0.016	
712.20	0.016	
713.00	0.016	
713.80	0.016	
714.60	0.016	
715.40	0.016	
716.20	0.016	
716.90	0.016	
717.70	0.016	
718.50	0.016	
719.30	0.016	
720.10	0.016	
720.90	0.015	
721.60	0.015	
722.40	0.015	
723.20	0.015	
724.00	0.016	
724.80	0.015	
725.60	0.016	
726.30	0.015	
727.10	0.016	
727.90	0.016	
728.70	0.016	
729.50	0.016	
730.30	0.016	
731.00	0.016	
731.80	0.016	
732.60	0.016	
733.40	0.016	
734.20	0.015	
735.00	0.016	
735.70	0.016	
736.50	0.016	
737.30	0.016	
738.10	0.016	
738.90	0.016	
739.70	0.015	
740.40	0.015	
741.20	0.015	
742.00	0.015	
742.80	0.015	
743.60	0.015	
744.40	0.015	
745.10	0.015	
745.90	0.016	
746.70	0.015	
747.50	0.015	
748.30	0.015	
749.10	0.015	
749.80	0.015	
750.60	0.015	
751.40	0.015	
752.20	0.015	
753.00	0.015	
753.80	0.015	
754.50	0.015	
755.30	0.016	
756.10	0.016	
756.90	0.016	
757.70	0.016	
758.50	0.016	
759.30	0.016	
760.00	0.016	
760.80	0.016	
761.60	0.016	
762.40	0.016	
763.20	0.016	
764.00	0.016	
764.70	0.016	
765.50	0.015	
766.30	0.016	
767.10	0.016	
767.90	0.015	
768.70	0.016	
769.40	0.016	
770.20	0.016	
771.00	0.016	
771.80	0.016	
772.60	0.016	
773.40	0.016	
774.10	0.016	
774.90	0.016	
775.70	0.016	
776.50	0.016	
777.30	0.016	
778.10	0.016	
778.80	0.016	
779.60	0.016	
780.40	0.016	
781.20	0.016	
782.00	0.015	
782.80	0.015	
783.50	0.015	
784.30	0.015	
785.10	0.015	
785.90	0.015	
786.70	0.015	
787.50	0.015	
788.20	0.015	
789.00	0.015	
789.80	0.016	
790.60	0.016	
791.40	0.016	
792.20	0.016	
792.90	0.016	
793.70	0.016	
794.50	0.016	
795.30	0.016	
796.10	0.016	
796.90	0.016	
797.60	0.016	
798.40	0.016	
799.20	0.016	
800.00	0.016	
800.80	0.015	
801.60	0.015	
802.30	0.016	
803.10	0.016	
803.90	0.016	
804.70	0.016	
805.50	0.016	
806.30	0.016	
807.10	0.016	
807.80	0.016	
808.60	0.016	
809.40	0.015	
810.20	0.015	
811.00	0.015	
811.80	0.015	
812.50	0.015	
813.30	0.016	
814.10	0.016	
814.90	0.016	
815.70	0.016	
816.50	0.016	
817.20	0.016	
818.00	0.016	
818.80	0.015	
819.60	0.015	
820.40	0.015	
821.20	0.016	
821.90	0.016	
822.70	0.016	
823.50	0.016	
824.30	0.016	
825.10	0.016	
825.90	0.016	
826.60	0.016	
827.40	0.016	
828.20	0.016	
829.00	0.015	
829.80	0.015	
830.60	0.015	
831.30	0.015	
832.20	0.015	
833.00	0.015	
833.80	0.015	
834.60	0.016	
835.50	0.016	
836.30	0.016	
837.10	0.016	
838.00	0.016	
838.80	0.016	
839.60	0.016	
840.50	0.016	
841.30	0.016	
842.10	0.016	
842.90	0.016	
843.80	0.016	
844.60	0.016	
845.40	0.016	
846.30	0.016	
847.10	0.016	
847.90	0.016	
848.80	0.015	
849.60	0.015	
850.40	0.015	
851.30	0.015	
852.10	0.015	
852.90	0.015	
853.70	0.015	
854.60	0.015	
855.40	0.015	
856.20	0.015	
857.10	0.016	
857.90	0.015	
858.70	0.016	
859.60	0.016	
860.40	0.016	
861.20	0.016	
862.10	0.016	
862.90	0.016	
863.70	0.016	
864.50	0.016	
865.40	0.016	
866.20	0.016	
867.00	0.016	
867.90	0.016	
868.70	0.016	
869.50	0.016	
870.40	0.016	
871.20	0.016	
872.00	0.016	
872.80	0.015	
873.70	0.015	
874.50	0.015	
875.30	0.015	
876.20	0.015	
877.00	0.015	
877.80	0.015	
878.70	0.015	
879.50	0.015	
880.30	0.015	
881.20	0.015	
882.00	0.015	
882.80	0.015	
883.60	0.015	
884.50	0.015	
885.30	0.016	
886.10	0.016	
887.00	0.016	
887.80	0.016	
888.60	0.016	
889.50	0.016	
890.30	0.016	
891.10	0.015	
892.00	0.015	
892.80	0.015	
893.60	0.015	
894.40	0.015	
895.30	0.015	
896.10	0.015	
896.90	0.015	
897.80	0.016	
898.60	0.016	
899.40	0.016
Vernier Format 2
act7_187.txt 6/30/116 15:2:33
Run 9
Wavelength	Intensity	
W	I	
nm	rel	

380.50	0.016	
381.30	0.016	
382.20	0.016	
383.10	0.016	
384.00	0.016	
384.90	0.016	
385.80	0.016	
386.70	0.017	
387.60	0.017	
388.50	0.016	
389.40	0.016	
390.20	0.016	
391.10	0.016	
392.00	0.016	
392.90	0.016	
393.80	0.016	
394.70	0.016	
395.60	0.017	
396.50	0.017	
397.40	0.016	
398.30	0.016	
399.10	0.016	
400.00	0.016	
400.90	0.016	
401.80	0.017	
402.70	0.017	
403.60	0.018	
404.50	0.018	
405.40	0.018	
406.30	0.018	
407.20	0.018	
408.00	0.018	
408.90	0.018	
409.80	0.018	
410.70	0.018	
411.60	0.019	
412.50	0.019	
413.40	0.019	
414.30	0.020	
415.20	0.020	
416.00	0.020	
416.90	0.021	
417.80	0.021	
418.70	0.021	
419.60	0.021	
420.50	0.022	
421.40	0.022	
422.30	0.022	
423.20	0.023	
424.10	0.023	
424.90	0.023	
425.80	0.023	
426.70	0.024	
427.60	0.024	
428.50	0.024	
429.40	0.024	
430.30	0.024	
431.20	0.025	
432.10	0.025	
433.00	0.025	
433.80	0.025	
434.70	0.026	
435.60	0.026	
436.50	0.026	
437.40	0.026	
438.30	0.026	
439.20	0.027	
440.10	0.027	
441.00	0.027	
441.90	0.027	
442.70	0.027	
443.60	0.027	
444.50	0.027	
445.40	0.027	
446.30	0.027	
447.20	0.027	
448.10	0.027	
449.00	0.026	
449.90	0.026	
450.80	0.025	
451.60	0.025	
452.50	0.024	
453.40	0.024	
454.30	0.023	
455.20	0.023	
456.10	0.022	
457.00	0.022	
457.90	0.022	
458.80	0.022	
459.60	0.022	
460.50	0.021	
461.40	0.021	
462.30	0.021	
463.20	0.021	
464.10	0.020	
465.00	0.020	
465.90	0.020	
466.80	0.020	
467.70	0.020	
468.50	0.020	
469.40	0.020	
470.30	0.020	
471.20	0.019	
472.10	0.019	
473.00	0.019	
473.90	0.019	
474.80	0.019	
475.70	0.019	
476.60	0.019	
477.40	0.018	
478.30	0.018	
479.20	0.018	
480.10	0.018	
481.00	0.018	
481.90	0.018	
482.80	0.018	
483.70	0.018	
484.60	0.018	
485.50	0.018	
486.30	0.018	
487.20	0.018	
488.10	0.018	
489.00	0.018	
489.90	0.018	
490.80	0.018	
491.70	0.018	
492.60	0.018	
493.50	0.018	
494.40	0.018	
495.20	0.018	
496.10	0.018	
497.00	0.018	
497.90	0.018	
498.80	0.018	
499.70	0.018	
500.60	0.018	
501.50	0.018	
502.40	0.018	
503.20	0.018	
504.10	0.019	
505.00	0.018	
505.90	0.019	
506.80	0.019	
507.70	0.019	
508.60	0.019	
509.50	0.019	
510.40	0.018	
511.30	0.019	
512.20	0.019	
513.00	0.019	
513.80	0.019	
514.60	0.019	
515.50	0.019	
516.30	0.019	
517.10	0.019	
517.90	0.019	
518.80	0.019	
519.60	0.019	
520.40	0.019	
521.20	0.019	
522.10	0.019	
522.90	0.019	
523.70	0.019	
524.50	0.019	
525.40	0.019	
526.20	0.019	
527.00	0.019	
527.80	0.019	
528.70	0.019	
529.50	0.019	
530.30	0.018	
531.10	0.018	
532.00	0.018	
532.80	0.018	
533.60	0.019	
534.50	0.018	
535.30	0.018	
536.10	0.018	
536.90	0.018	
537.80	0.018	
538.60	0.018	
539.40	0.018	
540.20	0.018	
541.10	0.019	
541.90	0.018	
542.70	0.018	
543.50	0.018	
544.40	0.018	
545.20	0.018	
546.00	0.018	
546.80	0.018	
547.70	0.018	
548.50	0.018	
549.30	0.018	
550.10	0.017	
551.00	0.017	
551.80	0.017	
552.60	0.017	
553.50	0.017	
554.30	0.017	
555.10	0.017	
555.90	0.017	
556.80	0.017	
557.60	0.017	
558.40	0.017	
559.20	0.017	
560.10	0.017	
560.90	0.017	
561.70	0.017	
562.50	0.017	
563.40	0.017	
564.20	0.017	
565.00	0.017	
565.80	0.017	
566.70	0.017	
567.50	0.017	
568.30	0.017	
569.10	0.017	
570.00	0.016	
570.80	0.017	
571.60	0.017	
572.40	0.016	
573.30	0.017	
574.10	0.017	
574.90	0.016	
575.80	0.016	
576.60	0.016	
577.40	0.016	
578.20	0.016	
579.10	0.016	
579.90	0.016	
580.70	0.017	
581.50	0.017	
582.40	0.017	
583.20	0.017	
584.00	0.017	
584.80	0.017	
585.70	0.016	
586.50	0.016	
587.30	0.016	
588.10	0.016	
588.90	0.016	
589.60	0.016	
590.40	0.016	
591.10	0.016	
591.90	0.016	
592.60	0.016	
593.40	0.016	
594.10	0.016	
594.90	0.016	
595.60	0.016	
596.40	0.016	
597.10	0.016	
597.90	0.016	
598.60	0.016	
599.40	0.016	
600.10	0.016	
600.90	0.016	
601.60	0.016	
602.40	0.016	
603.10	0.016	
603.90	0.016	
604.60	0.016	
605.40	0.016	
606.10	0.016	
606.90	0.016	
607.70	0.016	
608.40	0.016	
609.20	0.016	
609.90	0.016	
610.70	0.016	
611.40	0.016	
612.20	0.016	
612.90	0.016	
613.70	0.016	
614.40	0.016	
615.20	0.016	
615.90	0.016	
616.70	0.015	
617.40	0.015	
618.20	0.016	
618.90	0.016	
619.70	0.016	
620.40	0.016	
621.20	0.016	
621.90	0.016	
622.70	0.016	
623.40	0.016	
624.20	0.016	
624.90	0.016	
625.70	0.016	
626.40	0.016	
627.20	0.016	
627.90	0.016	
628.70	0.016	
629.40	0.015	
630.20	0.015	
630.90	0.015	
631.70	0.015	
632.40	0.015	
633.20	0.015	
633.90	0.016	
634.70	0.016	
635.40	0.016	
636.20	0.016	
636.90	0.016	
637.70	0.016	
638.40	0.016	
639.20	0.016	
639.90	0.016	
640.70	0.015	
641.40	0.016	
642.20	0.015	
642.90	0.015	
643.70	0.015	
644.50	0.016	
645.20	0.015	
646.00	0.015	
646.70	0.015	
647.50	0.015	
648.20	0.015	
649.00	0.015	
649.70	0.015	
650.50	0.015	
651.20	0.015	
652.00	0.015	
652.70	0.016	
653.50	0.016	
654.20	0.016	
655.00	0.016	
655.70	0.015	
656.50	0.016	
657.20	0.016	
658.00	0.016	
658.70	0.015	
659.50	0.015	
660.20	0.015	
661.00	0.016	
661.70	0.016	
662.50	0.016	
663.20	0.016	
664.00	0.016	
664.70	0.016	
665.50	0.016	
666.20	0.016	
667.00	0.016	
667.80	0.015	
668.50	0.015	
669.30	0.015	
670.00	0.016	
670.80	0.016	
671.60	0.016	
672.30	0.015	
673.10	0.015	
673.90	0.015	
674.60	0.016	
675.40	0.015	
676.20	0.015	
676.90	0.015	
677.70	0.015	
678.50	0.016	
679.20	0.015	
680.00	0.015	
680.70	0.015	
681.50	0.015	
682.30	0.015	
683.00	0.016	
683.80	0.015	
684.60	0.016	
685.30	0.015	
686.10	0.015	
686.90	0.015	
687.60	0.015	
688.40	0.016	
689.20	0.016	
689.90	0.016	
690.70	0.016	
691.50	0.016	
692.20	0.016	
693.00	0.016	
693.70	0.016	
694.50	0.015	
695.30	0.015	
696.00	0.015	
696.80	0.015	
697.60	0.015	
698.30	0.015	
699.10	0.015	
699.90	0.015	
700.60	0.015	
701.40	0.015	
702.20	0.015	
702.90	0.015	
703.70	0.015	
704.50	0.015	
705.20	0.015	
706.00	0.015	
706.80	0.015	
707.50	0.015	
708.30	0.015	
709.10	0.015	
709.90	0.015	
710.70	0.015	
711.50	0.015	
712.20	0.015	
713.00	0.015	
713.80	0.015	
714.60	0.015	
715.40	0.015	
716.20	0.015	
716.90	0.015	
717.70	0.016	
718.50	0.016	
719.30	0.016	
720.10	0.015	
720.90	0.015	
721.60	0.015	
722.40	0.015	
723.20	0.015	
724.00	0.015	
724.80	0.015	
725.60	0.015	
726.30	0.015	
727.10	0.015	
727.90	0.015	
728.70	0.015	
729.50	0.015	
730.30	0.016	
731.00	0.016	
731.80	0.016	
732.60	0.016	
733.40	0.016	
734.20	0.016	
735.00	0.016	
735.70	0.016	
736.50	0.015	
737.30	0.015	
738.10	0.015	
738.90	0.015	
739.70	0.015	
740.40	0.015	
741.20	0.015	
742.00	0.015	
742.80	0.015	
743.60	0.015	
744.40	0.015	
745.10	0.015	
745.90	0.015	
746.70	0.015	
747.50	0.015	
748.30	0.015	
749.10	0.015	
749.80	0.015	
750.60	0.015	
751.40	0.015	
752.20	0.015	
753.00	0.015	
753.80	0.015	
754.50	0.015	
755.30	0.015	
756.10	0.015	
756.90	0.015	
757.70	0.015	
758.50	0.016	
759.30	0.015	
760.00	0.016	
760.80	0.015	
761.60	0.015	
762.40	0.015	
763.20	0.015	
764.00	0.015	
764.70	0.016	
765.50	0.016	
766.30	0.016	
767.10	0.016	
767.90	0.015	
768.70	0.016	
769.40	0.016	
770.20	0.015	
771.00	0.016	
771.80	0.015	
772.60	0.015	
773.40	0.016	
774.10	0.015	
774.90	0.015	
775.70	0.016	
776.50	0.015	
777.30	0.015	
778.10	0.015	
778.80	0.015	
779.60	0.015	
780.40	0.015	
781.20	0.015	
782.00	0.015	
782.80	0.016	
783.50	0.016	
784.30	0.016	
785.10	0.016	
785.90	0.016	
786.70	0.015	
787.50	0.015	
788.20	0.016	
789.00	0.015	
789.80	0.016	
790.60	0.016	
791.40	0.015	
792.20	0.015	
792.90	0.015	
793.70	0.015	
794.50	0.015	
795.30	0.015	
796.10	0.015	
796.90	0.015	
797.60	0.015	
798.40	0.015	
799.20	0.015	
800.00	0.015	
800.80	0.015	
801.60	0.015	
802.30	0.015	
803.10	0.015	
803.90	0.015	
804.70	0.015	
805.50	0.015	
806.30	0.015	
807.10	0.015	
807.80	0.016	
808.60	0.016	
809.40	0.016	
810.20	0.016	
811.00	0.016	
811.80	0.016	
812.50	0.016	
813.30	0.016	
814.10	0.016	
814.90	0.015	
815.70	0.015	
816.50	0.016	
817.20	0.016	
818.00	0.016	
818.80	0.016	
819.60	0.015	
820.40	0.015	
821.20	0.015	
821.90	0.015	
822.70	0.015	
823.50	0.015	
824.30	0.016	
825.10	0.016	
825.90	0.016	
826.60	0.016	
827.40	0.016	
828.20	0.016	
829.00	0.016	
829.80	0.016	
830.60	0.015	
831.30	0.015	
832.20	0.015	
833.00	0.015	
833.80	0.015	
834.60	0.015	
835.50	0.015	
836.30	0.016	
837.10	0.016	
838.00	0.016	
838.80	0.016	
839.60	0.016	
840.50	0.016	
841.30	0.016	
842.10	0.015	
842.90	0.015	
843.80	0.015	
844.60	0.015	
845.40	0.015	
846.30	0.015	
847.10	0.015	
847.90	0.015	
848.80	0.015	
849.60	0.015	
850.40	0.016	
851.30	0.015	
852.10	0.016	
852.90	0.016	
853.70	0.016	
854.60	0.016	
855.40	0.016	
856.20	0.016	
857.10	0.015	
857.90	0.015	
858.70	0.016	
859.60	0.015	
860.40	0.015	
861.20	0.015	
862.10	0.015	
862.90	0.015	
863.70	0.015	
864.50	0.015	
865.40	0.015	
866.20	0.015	
867.00	0.015	
867.90	0.015	
868.70	0.015	
869.50	0.016	
870.40	0.015	
871.20	0.015	
872.00	0.015	
872.80	0.015	
873.70	0.015	
874.50	0.015	
875.30	0.015	
876.20	0.015	
877.00	0.015	
877.80	0.016	
878.70	0.016	
879.50	0.016	
880.30	0.015	
881.20	0.015	
882.00	0.015	
882.80	0.015	
883.60	0.015	
884.50	0.015	
885.30	0.015	
886.10	0.016	
887.00	0.016	
887.80	0.016	
888.60	0.015	
889.50	0.016	
890.30	0.016	
891.10	0.016	
892.00	0.015	
892.80	0.016	
893.60	0.015	
894.40	0.015	
895.30	0.015	
896.10	0.015	
896.90	0.015	
897.80	0.015	
898.60	0.015	
899.40	0.015	
Vernier Format 2
act7_187.txt 6/30/116 15:2:33
Run 10
Wavelength	Intensity	
W	I	
nm	rel	

380.50	0.015	
381.30	0.015	
382.20	0.015	
383.10	0.015	
384.00	0.016	
384.90	0.015	
385.80	0.015	
386.70	0.015	
387.60	0.015	
388.50	0.015	
389.40	0.015	
390.20	0.015	
391.10	0.015	
392.00	0.015	
392.90	0.015	
393.80	0.015	
394.70	0.015	
395.60	0.016	
396.50	0.016	
397.40	0.016	
398.30	0.016	
399.10	0.016	
400.00	0.015	
400.90	0.015	
401.80	0.015	
402.70	0.015	
403.60	0.015	
404.50	0.015	
405.40	0.015	
406.30	0.015	
407.20	0.015	
408.00	0.016	
408.90	0.015	
409.80	0.015	
410.70	0.015	
411.60	0.016	
412.50	0.016	
413.40	0.016	
414.30	0.016	
415.20	0.016	
416.00	0.016	
416.90	0.016	
417.80	0.016	
418.70	0.016	
419.60	0.016	
420.50	0.016	
421.40	0.016	
422.30	0.016	
423.20	0.016	
424.10	0.016	
424.90	0.016	
425.80	0.016	
426.70	0.016	
427.60	0.016	
428.50	0.016	
429.40	0.016	
430.30	0.016	
431.20	0.016	
432.10	0.016	
433.00	0.016	
433.80	0.016	
434.70	0.016	
435.60	0.016	
436.50	0.016	
437.40	0.016	
438.30	0.016	
439.20	0.016	
440.10	0.016	
441.00	0.016	
441.90	0.016	
442.70	0.016	
443.60	0.016	
444.50	0.016	
445.40	0.016	
446.30	0.016	
447.20	0.016	
448.10	0.016	
449.00	0.016	
449.90	0.016	
450.80	0.016	
451.60	0.016	
452.50	0.016	
453.40	0.016	
454.30	0.016	
455.20	0.015	
456.10	0.015	
457.00	0.016	
457.90	0.016	
458.80	0.016	
459.60	0.016	
460.50	0.016	
461.40	0.016	
462.30	0.016	
463.20	0.016	
464.10	0.016	
465.00	0.016	
465.90	0.016	
466.80	0.016	
467.70	0.016	
468.50	0.016	
469.40	0.016	
470.30	0.016	
471.20	0.016	
472.10	0.015	
473.00	0.015	
473.90	0.015	
474.80	0.015	
475.70	0.015	
476.60	0.015	
477.40	0.016	
478.30	0.016	
479.20	0.016	
480.10	0.016	
481.00	0.016	
481.90	0.016	
482.80	0.016	
483.70	0.016	
484.60	0.016	
485.50	0.015	
486.30	0.016	
487.20	0.016	
488.10	0.016	
489.00	0.016	
489.90	0.016	
490.80	0.016	
491.70	0.016	
492.60	0.016	
493.50	0.016	
494.40	0.016	
495.20	0.016	
496.10	0.016	
497.00	0.016	
497.90	0.016	
498.80	0.016	
499.70	0.016	
500.60	0.016	
501.50	0.016	
502.40	0.016	
503.20	0.016	
504.10	0.016	
505.00	0.017	
505.90	0.016	
506.80	0.017	
507.70	0.016	
508.60	0.016	
509.50	0.016	
510.40	0.016	
511.30	0.016	
512.20	0.017	
513.00	0.017	
513.80	0.017	
514.60	0.017	
515.50	0.017	
516.30	0.017	
517.10	0.017	
517.90	0.017	
518.80	0.017	
519.60	0.017	
520.40	0.017	
521.20	0.017	
522.10	0.018	
522.90	0.017	
523.70	0.017	
524.50	0.018	
525.40	0.018	
526.20	0.018	
527.00	0.018	
527.80	0.018	
528.70	0.018	
529.50	0.018	
530.30	0.017	
531.10	0.018	
532.00	0.017	
532.80	0.018	
533.60	0.017	
534.50	0.017	
535.30	0.017	
536.10	0.017	
536.90	0.017	
537.80	0.017	
538.60	0.017	
539.40	0.017	
540.20	0.017	
541.10	0.017	
541.90	0.017	
542.70	0.017	
543.50	0.017	
544.40	0.017	
545.20	0.017	
546.00	0.017	
546.80	0.017	
547.70	0.017	
548.50	0.017	
549.30	0.017	
550.10	0.017	
551.00	0.017	
551.80	0.017	
552.60	0.017	
553.50	0.017	
554.30	0.017	
555.10	0.017	
555.90	0.017	
556.80	0.017	
557.60	0.017	
558.40	0.017	
559.20	0.017	
560.10	0.017	
560.90	0.017	
561.70	0.017	
562.50	0.017	
563.40	0.017	
564.20	0.017	
565.00	0.017	
565.80	0.017	
566.70	0.017	
567.50	0.017	
568.30	0.017	
569.10	0.017	
570.00	0.017	
570.80	0.017	
571.60	0.017	
572.40	0.017	
573.30	0.017	
574.10	0.017	
574.90	0.017	
575.80	0.017	
576.60	0.018	
577.40	0.018	
578.20	0.018	
579.10	0.018	
579.90	0.018	
580.70	0.019	
581.50	0.019	
582.40	0.019	
583.20	0.020	
584.00	0.020	
584.80	0.020	
585.70	0.020	
586.50	0.020	
587.30	0.020	
588.10	0.020	
588.90	0.020	
589.60	0.020	
590.40	0.021	
591.10	0.021	
591.90	0.021	
592.60	0.021	
593.40	0.021	
594.10	0.021	
594.90	0.021	
595.60	0.021	
596.40	0.021	
597.10	0.021	
597.90	0.021	
598.60	0.021	
599.40	0.021	
600.10	0.021	
600.90	0.021	
601.60	0.021	
602.40	0.022	
603.10	0.022	
603.90	0.023	
604.60	0.023	
605.40	0.024	
606.10	0.024	
606.90	0.025	
607.70	0.026	
608.40	0.027	
609.20	0.028	
609.90	0.029	
610.70	0.030	
611.40	0.030	
612.20	0.030	
612.90	0.030	
613.70	0.029	
614.40	0.028	
615.20	0.027	
615.90	0.026	
616.70	0.025	
617.40	0.024	
618.20	0.024	
618.90	0.024	
619.70	0.025	
620.40	0.025	
621.20	0.025	
621.90	0.025	
622.70	0.026	
623.40	0.026	
624.20	0.027	
624.90	0.029	
625.70	0.033	
626.40	0.041	
627.20	0.052	
627.90	0.062	
628.70	0.067	
629.40	0.071	
630.20	0.074	
630.90	0.075	
631.70	0.071	
632.40	0.063	
633.20	0.054	
633.90	0.049	
634.70	0.044	
635.40	0.039	
636.20	0.033	
636.90	0.028	
637.70	0.024	
638.40	0.023	
639.20	0.022	
639.90	0.021	
640.70	0.021	
641.40	0.021	
642.20	0.022	
642.90	0.022	
643.70	0.023	
644.50	0.023	
645.20	0.024	
646.00	0.024	
646.70	0.023	
647.50	0.022	
648.20	0.022	
649.00	0.021	
649.70	0.021	
650.50	0.020	
651.20	0.019	
652.00	0.019	
652.70	0.019	
653.50	0.019	
654.20	0.019	
655.00	0.019	
655.70	0.019	
656.50	0.019	
657.20	0.019	
658.00	0.019	
658.70	0.018	
659.50	0.018	
660.20	0.018	
661.00	0.018	
661.70	0.018	
662.50	0.017	
663.20	0.018	
664.00	0.017	
664.70	0.018	
665.50	0.018	
666.20	0.017	
667.00	0.017	
667.80	0.017	
668.50	0.018	
669.30	0.018	
670.00	0.018	
670.80	0.018	
671.60	0.018	
672.30	0.018	
673.10	0.017	
673.90	0.017	
674.60	0.017	
675.40	0.017	
676.20	0.017	
676.90	0.017	
677.70	0.016	
678.50	0.017	
679.20	0.016	
680.00	0.016	
680.70	0.016	
681.50	0.016	
682.30	0.016	
683.00	0.016	
683.80	0.016	
684.60	0.016	
685.30	0.016	
686.10	0.016	
686.90	0.016	
687.60	0.016	
688.40	0.016	
689.20	0.016	
689.90	0.016	
690.70	0.016	
691.50	0.016	
692.20	0.016	
693.00	0.016	
693.70	0.016	
694.50	0.016	
695.30	0.016	
696.00	0.016	
696.80	0.016	
697.60	0.016	
698.30	0.016	
699.10	0.016	
699.90	0.016	
700.60	0.016	
701.40	0.016	
702.20	0.016	
702.90	0.016	
703.70	0.016	
704.50	0.016	
705.20	0.016	
706.00	0.016	
706.80	0.016	
707.50	0.016	
708.30	0.016	
709.10	0.016	
709.90	0.016	
710.70	0.016	
711.50	0.016	
712.20	0.016	
713.00	0.016	
713.80	0.016	
714.60	0.016	
715.40	0.016	
716.20	0.016	
716.90	0.016	
717.70	0.016	
718.50	0.016	
719.30	0.016	
720.10	0.016	
720.90	0.016	
721.60	0.015	
722.40	0.016	
723.20	0.016	
724.00	0.016	
724.80	0.016	
725.60	0.016	
726.30	0.016	
727.10	0.016	
727.90	0.016	
728.70	0.016	
729.50	0.016	
730.30	0.016	
731.00	0.016	
731.80	0.016	
732.60	0.016	
733.40	0.016	
734.20	0.016	
735.00	0.016	
735.70	0.016	
736.50	0.016	
737.30	0.016	
738.10	0.015	
738.90	0.015	
739.70	0.015	
740.40	0.015	
741.20	0.015	
742.00	0.015	
742.80	0.015	
743.60	0.015	
744.40	0.015	
745.10	0.015	
745.90	0.015	
746.70	0.015	
747.50	0.015	
748.30	0.015	
749.10	0.016	
749.80	0.016	
750.60	0.016	
751.40	0.016	
752.20	0.016	
753.00	0.016	
753.80	0.016	
754.50	0.016	
755.30	0.016	
756.10	0.015	
756.90	0.016	
757.70	0.015	
758.50	0.016	
759.30	0.016	
760.00	0.015	
760.80	0.015	
761.60	0.015	
762.40	0.015	
763.20	0.015	
764.00	0.015	
764.70	0.016	
765.50	0.016	
766.30	0.015	
767.10	0.015	
767.90	0.015	
768.70	0.015	
769.40	0.015	
770.20	0.015	
771.00	0.015	
771.80	0.015	
772.60	0.015	
773.40	0.015	
774.10	0.016	
774.90	0.016	
775.70	0.016	
776.50	0.016	
777.30	0.015	
778.10	0.015	
778.80	0.016	
779.60	0.015	
780.40	0.015	
781.20	0.016	
782.00	0.016	
782.80	0.016	
783.50	0.016	
784.30	0.015	
785.10	0.015	
785.90	0.015	
786.70	0.015	
787.50	0.015	
788.20	0.015	
789.00	0.015	
789.80	0.015	
790.60	0.015	
791.40	0.015	
792.20	0.015	
792.90	0.015	
793.70	0.015	
794.50	0.015	
795.30	0.015	
796.10	0.015	
796.90	0.015	
797.60	0.015	
798.40	0.015	
799.20	0.015	
800.00	0.015	
800.80	0.015	
801.60	0.015	
802.30	0.015	
803.10	0.015	
803.90	0.015	
804.70	0.015	
805.50	0.015	
806.30	0.015	
807.10	0.015	
807.80	0.015	
808.60	0.015	
809.40	0.015	
810.20	0.015	
811.00	0.015	
811.80	0.015	
812.50	0.015	
813.30	0.016	
814.10	0.015	
814.90	0.015	
815.70	0.015	
816.50	0.015	
817.20	0.015	
818.00	0.015	
818.80	0.015	
819.60	0.015	
820.40	0.015	
821.20	0.016	
821.90	0.015	
822.70	0.015	
823.50	0.016	
824.30	0.016	
825.10	0.016	
825.90	0.016	
826.60	0.016	
827.40	0.016	
828.20	0.016	
829.00	0.015	
829.80	0.015	
830.60	0.016	
831.30	0.016	
832.20	0.016	
833.00	0.016	
833.80	0.016	
834.60	0.016	
835.50	0.016	
836.30	0.016	
837.10	0.016	
838.00	0.016	
838.80	0.016	
839.60	0.016	
840.50	0.016	
841.30	0.016	
842.10	0.016	
842.90	0.016	
843.80	0.016	
844.60	0.016	
845.40	0.016	
846.30	0.016	
847.10	0.016	
847.90	0.016	
848.80	0.016	
849.60	0.016	
850.40	0.016	
851.30	0.016	
852.10	0.016	
852.90	0.016	
853.70	0.015	
854.60	0.015	
855.40	0.015	
856.20	0.015	
857.10	0.015	
857.90	0.015	
858.70	0.015	
859.60	0.015	
860.40	0.015	
861.20	0.015	
862.10	0.015	
862.90	0.015	
863.70	0.015	
864.50	0.015	
865.40	0.015	
866.20	0.015	
867.00	0.015	
867.90	0.015	
868.70	0.015	
869.50	0.015	
870.40	0.015	
871.20	0.015	
872.00	0.015	
872.80	0.015	
873.70	0.015	
874.50	0.015	
875.30	0.015	
876.20	0.015	
877.00	0.015	
877.80	0.015	
878.70	0.015	
879.50	0.015	
880.30	0.015	
881.20	0.015	
882.00	0.015	
882.80	0.015	
883.60	0.015	
884.50	0.015	
885.30	0.015	
886.10	0.015	
887.00	0.015	
887.80	0.015	
888.60	0.015	
889.50	0.015	
890.30	0.015	
891.10	0.015	
892.00	0.015	
892.80	0.015	
893.60	0.016	
894.40	0.016	
895.30	0.016	
896.10	0.016	
896.90	0.016	
897.80	0.015	
898.60	0.015	
899.40	0.015	
Vernier Format 2
act7_187.txt 6/30/116 15:2:33
Run 11
Wavelength	Intensity	
W	I	
nm	rel	

380.50	0.016	
381.30	0.016	
382.20	0.016	
383.10	0.016	
384.00	0.016	
384.90	0.016	
385.80	0.016	
386.70	0.016	
387.60	0.016	
388.50	0.016	
389.40	0.016	
390.20	0.016	
391.10	0.017	
392.00	0.016	
392.90	0.016	
393.80	0.016	
394.70	0.016	
395.60	0.016	
396.50	0.016	
397.40	0.016	
398.30	0.016	
399.10	0.017	
400.00	0.017	
400.90	0.017	
401.80	0.016	
402.70	0.017	
403.60	0.017	
404.50	0.017	
405.40	0.017	
406.30	0.017	
407.20	0.017	
408.00	0.017	
408.90	0.017	
409.80	0.017	
410.70	0.017	
411.60	0.017	
412.50	0.017	
413.40	0.017	
414.30	0.017	
415.20	0.017	
416.00	0.018	
416.90	0.018	
417.80	0.018	
418.70	0.018	
419.60	0.018	
420.50	0.018	
421.40	0.018	
422.30	0.018	
423.20	0.018	
424.10	0.019	
424.90	0.018	
425.80	0.019	
426.70	0.019	
427.60	0.019	
428.50	0.019	
429.40	0.019	
430.30	0.019	
431.20	0.019	
432.10	0.019	
433.00	0.019	
433.80	0.019	
434.70	0.019	
435.60	0.019	
436.50	0.019	
437.40	0.019	
438.30	0.019	
439.20	0.019	
440.10	0.019	
441.00	0.019	
441.90	0.019	
442.70	0.019	
443.60	0.019	
444.50	0.019	
445.40	0.020	
446.30	0.020	
447.20	0.020	
448.10	0.020	
449.00	0.020	
449.90	0.020	
450.80	0.020	
451.60	0.019	
452.50	0.019	
453.40	0.019	
454.30	0.019	
455.20	0.019	
456.10	0.019	
457.00	0.019	
457.90	0.019	
458.80	0.019	
459.60	0.019	
460.50	0.019	
461.40	0.019	
462.30	0.018	
463.20	0.018	
464.10	0.018	
465.00	0.018	
465.90	0.018	
466.80	0.018	
467.70	0.018	
468.50	0.018	
469.40	0.018	
470.30	0.018	
471.20	0.018	
472.10	0.018	
473.00	0.018	
473.90	0.018	
474.80	0.019	
475.70	0.019	
476.60	0.019	
477.40	0.019	
478.30	0.019	
479.20	0.019	
480.10	0.019	
481.00	0.019	
481.90	0.019	
482.80	0.019	
483.70	0.019	
484.60	0.020	
485.50	0.020	
486.30	0.020	
487.20	0.020	
488.10	0.020	
489.00	0.021	
489.90	0.020	
490.80	0.020	
491.70	0.020	
492.60	0.020	
493.50	0.020	
494.40	0.021	
495.20	0.021	
496.10	0.021	
497.00	0.022	
497.90	0.022	
498.80	0.022	
499.70	0.023	
500.60	0.023	
501.50	0.024	
502.40	0.024	
503.20	0.024	
504.10	0.025	
505.00	0.025	
505.90	0.026	
506.80	0.026	
507.70	0.027	
508.60	0.028	
509.50	0.029	
510.40	0.030	
511.30	0.031	
512.20	0.032	
513.00	0.033	
513.80	0.035	
514.60	0.036	
515.50	0.037	
516.30	0.039	
517.10	0.040	
517.90	0.041	
518.80	0.043	
519.60	0.044	
520.40	0.045	
521.20	0.047	
522.10	0.048	
522.90	0.049	
523.70	0.050	
524.50	0.051	
525.40	0.052	
526.20	0.052	
527.00	0.053	
527.80	0.053	
528.70	0.053	
529.50	0.053	
530.30	0.052	
531.10	0.051	
532.00	0.050	
532.80	0.050	
533.60	0.049	
534.50	0.048	
535.30	0.047	
536.10	0.046	
536.90	0.045	
537.80	0.044	
538.60	0.043	
539.40	0.043	
540.20	0.042	
541.10	0.041	
541.90	0.040	
542.70	0.040	
543.50	0.039	
544.40	0.038	
545.20	0.038	
546.00	0.037	
546.80	0.036	
547.70	0.035	
548.50	0.035	
549.30	0.034	
550.10	0.033	
551.00	0.033	
551.80	0.032	
552.60	0.032	
553.50	0.031	
554.30	0.030	
555.10	0.030	
555.90	0.030	
556.80	0.029	
557.60	0.029	
558.40	0.029	
559.20	0.029	
560.10	0.028	
560.90	0.028	
561.70	0.027	
562.50	0.027	
563.40	0.027	
564.20	0.027	
565.00	0.026	
565.80	0.026	
566.70	0.026	
567.50	0.026	
568.30	0.025	
569.10	0.025	
570.00	0.025	
570.80	0.024	
571.60	0.024	
572.40	0.024	
573.30	0.023	
574.10	0.023	
574.90	0.023	
575.80	0.023	
576.60	0.022	
577.40	0.022	
578.20	0.022	
579.10	0.021	
579.90	0.021	
580.70	0.021	
581.50	0.021	
582.40	0.021	
583.20	0.021	
584.00	0.021	
584.80	0.021	
585.70	0.020	
586.50	0.020	
587.30	0.020	
588.10	0.020	
588.90	0.020	
589.60	0.019	
590.40	0.019	
591.10	0.019	
591.90	0.019	
592.60	0.019	
593.40	0.019	
594.10	0.019	
594.90	0.019	
595.60	0.019	
596.40	0.019	
597.10	0.019	
597.90	0.019	
598.60	0.019	
599.40	0.019	
600.10	0.019	
600.90	0.019	
601.60	0.019	
602.40	0.019	
603.10	0.019	
603.90	0.019	
604.60	0.019	
605.40	0.019	
606.10	0.019	
606.90	0.019	
607.70	0.019	
608.40	0.020	
609.20	0.020	
609.90	0.020	
610.70	0.020	
611.40	0.020	
612.20	0.020	
612.90	0.020	
613.70	0.020	
614.40	0.020	
615.20	0.019	
615.90	0.019	
616.70	0.019	
617.40	0.019	
618.20	0.019	
618.90	0.019	
619.70	0.019	
620.40	0.019	
621.20	0.019	
621.90	0.019	
622.70	0.019	
623.40	0.019	
624.20	0.019	
624.90	0.020	
625.70	0.021	
626.40	0.022	
627.20	0.022	
627.90	0.023	
628.70	0.024	
629.40	0.024	
630.20	0.024	
630.90	0.024	
631.70	0.024	
632.40	0.023	
633.20	0.023	
633.90	0.022	
634.70	0.021	
635.40	0.021	
636.20	0.020	
636.90	0.019	
637.70	0.019	
638.40	0.018	
639.20	0.018	
639.90	0.018	
640.70	0.018	
641.40	0.018	
642.20	0.018	
642.90	0.018	
643.70	0.018	
644.50	0.019	
645.20	0.019	
646.00	0.019	
646.70	0.019	
647.50	0.018	
648.20	0.018	
649.00	0.018	
649.70	0.018	
650.50	0.017	
651.20	0.017	
652.00	0.017	
652.70	0.017	
653.50	0.017	
654.20	0.017	
655.00	0.017	
655.70	0.017	
656.50	0.017	
657.20	0.017	
658.00	0.017	
658.70	0.016	
659.50	0.016	
660.20	0.016	
661.00	0.016	
661.70	0.016	
662.50	0.016	
663.20	0.016	
664.00	0.016	
664.70	0.016	
665.50	0.016	
666.20	0.016	
667.00	0.016	
667.80	0.016	
668.50	0.016	
669.30	0.016	
670.00	0.016	
670.80	0.016	
671.60	0.016	
672.30	0.016	
673.10	0.016	
673.90	0.016	
674.60	0.016	
675.40	0.016	
676.20	0.016	
676.90	0.016	
677.70	0.016	
678.50	0.016	
679.20	0.016	
680.00	0.016	
680.70	0.016	
681.50	0.016	
682.30	0.016	
683.00	0.016	
683.80	0.016	
684.60	0.016	
685.30	0.016	
686.10	0.016	
686.90	0.016	
687.60	0.016	
688.40	0.016	
689.20	0.016	
689.90	0.016	
690.70	0.016	
691.50	0.016	
692.20	0.016	
693.00	0.016	
693.70	0.016	
694.50	0.016	
695.30	0.016	
696.00	0.016	
696.80	0.016	
697.60	0.016	
698.30	0.016	
699.10	0.016	
699.90	0.016	
700.60	0.016	
701.40	0.016	
702.20	0.016	
702.90	0.016	
703.70	0.016	
704.50	0.016	
705.20	0.016	
706.00	0.016	
706.80	0.016	
707.50	0.016	
708.30	0.016	
709.10	0.016	
709.90	0.016	
710.70	0.016	
711.50	0.016	
712.20	0.016	
713.00	0.016	
713.80	0.016	
714.60	0.016	
715.40	0.016	
716.20	0.016	
716.90	0.016	
717.70	0.016	
718.50	0.016	
719.30	0.016	
720.10	0.016	
720.90	0.016	
721.60	0.016	
722.40	0.016	
723.20	0.016	
724.00	0.016	
724.80	0.016	
725.60	0.016	
726.30	0.016	
727.10	0.016	
727.90	0.016	
728.70	0.016	
729.50	0.016	
730.30	0.016	
731.00	0.016	
731.80	0.016	
732.60	0.016	
733.40	0.016	
734.20	0.016	
735.00	0.016	
735.70	0.016	
736.50	0.016	
737.30	0.016	
738.10	0.016	
738.90	0.016	
739.70	0.016	
740.40	0.016	
741.20	0.016	
742.00	0.016	
742.80	0.016	
743.60	0.016	
744.40	0.015	
745.10	0.015	
745.90	0.015	
746.70	0.015	
747.50	0.015	
748.30	0.015	
749.10	0.015	
749.80	0.015	
750.60	0.015	
751.40	0.016	
752.20	0.016	
753.00	0.016	
753.80	0.016	
754.50	0.016	
755.30	0.016	
756.10	0.016	
756.90	0.016	
757.70	0.016	
758.50	0.016	
759.30	0.016	
760.00	0.016	
760.80	0.016	
761.60	0.016	
762.40	0.016	
763.20	0.016	
764.00	0.016	
764.70	0.016	
765.50	0.016	
766.30	0.016	
767.10	0.016	
767.90	0.016	
768.70	0.016	
769.40	0.016	
770.20	0.016	
771.00	0.016	
771.80	0.016	
772.60	0.016	
773.40	0.016	
774.10	0.016	
774.90	0.016	
775.70	0.016	
776.50	0.016	
777.30	0.016	
778.10	0.016	
778.80	0.015	
779.60	0.015	
780.40	0.015	
781.20	0.016	
782.00	0.016	
782.80	0.015	
783.50	0.016	
784.30	0.016	
785.10	0.015	
785.90	0.015	
786.70	0.015	
787.50	0.015	
788.20	0.015	
789.00	0.015	
789.80	0.015	
790.60	0.015	
791.40	0.015	
792.20	0.015	
792.90	0.016	
793.70	0.016	
794.50	0.015	
795.30	0.016	
796.10	0.016	
796.90	0.016	
797.60	0.016	
798.40	0.015	
799.20	0.016	
800.00	0.016	
800.80	0.016	
801.60	0.016	
802.30	0.016	
803.10	0.016	
803.90	0.016	
804.70	0.016	
805.50	0.016	
806.30	0.016	
807.10	0.016	
807.80	0.016	
808.60	0.016	
809.40	0.016	
810.20	0.015	
811.00	0.015	
811.80	0.015	
812.50	0.015	
813.30	0.015	
814.10	0.015	
814.90	0.015	
815.70	0.015	
816.50	0.016	
817.20	0.016	
818.00	0.016	
818.80	0.016	
819.60	0.015	
820.40	0.016	
821.20	0.016	
821.90	0.015	
822.70	0.016	
823.50	0.016	
824.30	0.016	
825.10	0.016	
825.90	0.016	
826.60	0.016	
827.40	0.016	
828.20	0.016	
829.00	0.016	
829.80	0.016	
830.60	0.016	
831.30	0.016	
832.20	0.016	
833.00	0.016	
833.80	0.016	
834.60	0.016	
835.50	0.016	
836.30	0.016	
837.10	0.016	
838.00	0.016	
838.80	0.016	
839.60	0.016	
840.50	0.015	
841.30	0.015	
842.10	0.015	
842.90	0.015	
843.80	0.016	
844.60	0.016	
845.40	0.016	
846.30	0.016	
847.10	0.015	
847.90	0.015	
848.80	0.015	
849.60	0.015	
850.40	0.015	
851.30	0.015	
852.10	0.015	
852.90	0.015	
853.70	0.015	
854.60	0.015	
855.40	0.016	
856.20	0.015	
857.10	0.015	
857.90	0.015	
858.70	0.015	
859.60	0.016	
860.40	0.016	
861.20	0.016	
862.10	0.015	
862.90	0.015	
863.70	0.015	
864.50	0.015	
865.40	0.016	
866.20	0.016	
867.00	0.016	
867.90	0.016	
868.70	0.016	
869.50	0.016	
870.40	0.016	
871.20	0.016	
872.00	0.016	
872.80	0.016	
873.70	0.016	
874.50	0.015	
875.30	0.016	
876.20	0.016	
877.00	0.016	
877.80	0.015	
878.70	0.016	
879.50	0.015	
880.30	0.015	
881.20	0.015	
882.00	0.015	
882.80	0.015	
883.60	0.015	
884.50	0.015	
885.30	0.015	
886.10	0.016	
887.00	0.016	
887.80	0.016	
888.60	0.015	
889.50	0.015	
890.30	0.016	
891.10	0.016	
892.00	0.016	
892.80	0.016	
893.60	0.015	
894.40	0.015	
895.30	0.016	
896.10	0.015	
896.90	0.015	
897.80	0.016	
898.60	0.016	
899.40	0.016	
Vernier Format 2
act7_187.txt 6/30/116 15:2:34
Run 12
Wavelength	Intensity	
W	I	
nm	rel	

380.50	0.017	
381.30	0.017	
382.20	0.017	
383.10	0.017	
384.00	0.017	
384.90	0.017	
385.80	0.017	
386.70	0.017	
387.60	0.017	
388.50	0.017	
389.40	0.017	
390.20	0.017	
391.10	0.017	
392.00	0.017	
392.90	0.017	
393.80	0.017	
394.70	0.017	
395.60	0.017	
396.50	0.017	
397.40	0.017	
398.30	0.017	
399.10	0.017	
400.00	0.018	
400.90	0.018	
401.80	0.018	
402.70	0.018	
403.60	0.019	
404.50	0.019	
405.40	0.019	
406.30	0.019	
407.20	0.019	
408.00	0.019	
408.90	0.019	
409.80	0.019	
410.70	0.020	
411.60	0.020	
412.50	0.020	
413.40	0.021	
414.30	0.021	
415.20	0.022	
416.00	0.022	
416.90	0.023	
417.80	0.023	
418.70	0.024	
419.60	0.024	
420.50	0.025	
421.40	0.025	
422.30	0.026	
423.20	0.027	
424.10	0.027	
424.90	0.028	
425.80	0.028	
426.70	0.029	
427.60	0.030	
428.50	0.031	
429.40	0.031	
430.30	0.032	
431.20	0.033	
432.10	0.033	
433.00	0.034	
433.80	0.035	
434.70	0.036	
435.60	0.036	
436.50	0.037	
437.40	0.038	
438.30	0.038	
439.20	0.039	
440.10	0.040	
441.00	0.040	
441.90	0.041	
442.70	0.041	
443.60	0.042	
444.50	0.042	
445.40	0.042	
446.30	0.042	
447.20	0.041	
448.10	0.040	
449.00	0.039	
449.90	0.038	
450.80	0.037	
451.60	0.035	
452.50	0.034	
453.40	0.032	
454.30	0.031	
455.20	0.030	
456.10	0.029	
457.00	0.028	
457.90	0.027	
458.80	0.026	
459.60	0.026	
460.50	0.026	
461.40	0.025	
462.30	0.025	
463.20	0.024	
464.10	0.024	
465.00	0.023	
465.90	0.022	
466.80	0.022	
467.70	0.022	
468.50	0.022	
469.40	0.021	
470.30	0.021	
471.20	0.021	
472.10	0.021	
473.00	0.020	
473.90	0.020	
474.80	0.020	
475.70	0.020	
476.60	0.019	
477.40	0.020	
478.30	0.019	
479.20	0.020	
480.10	0.019	
481.00	0.019	
481.90	0.019	
482.80	0.019	
483.70	0.019	
484.60	0.019	
485.50	0.019	
486.30	0.019	
487.20	0.019	
488.10	0.019	
489.00	0.019	
489.90	0.019	
490.80	0.019	
491.70	0.019	
492.60	0.019	
493.50	0.019	
494.40	0.019	
495.20	0.019	
496.10	0.019	
497.00	0.019	
497.90	0.019	
498.80	0.019	
499.70	0.019	
500.60	0.019	
501.50	0.019	
502.40	0.020	
503.20	0.020	
504.10	0.020	
505.00	0.020	
505.90	0.020	
506.80	0.020	
507.70	0.020	
508.60	0.020	
509.50	0.020	
510.40	0.020	
511.30	0.020	
512.20	0.020	
513.00	0.020	
513.80	0.020	
514.60	0.020	
515.50	0.020	
516.30	0.020	
517.10	0.020	
517.90	0.020	
518.80	0.020	
519.60	0.020	
520.40	0.020	
521.20	0.020	
522.10	0.020	
522.90	0.020	
523.70	0.019	
524.50	0.019	
525.40	0.019	
526.20	0.019	
527.00	0.019	
527.80	0.019	
528.70	0.019	
529.50	0.019	
530.30	0.019	
531.10	0.019	
532.00	0.018	
532.80	0.018	
533.60	0.018	
534.50	0.018	
535.30	0.018	
536.10	0.018	
536.90	0.018	
537.80	0.018	
538.60	0.017	
539.40	0.017	
540.20	0.017	
541.10	0.017	
541.90	0.017	
542.70	0.017	
543.50	0.017	
544.40	0.017	
545.20	0.017	
546.00	0.017	
546.80	0.016	
547.70	0.016	
548.50	0.017	
549.30	0.017	
550.10	0.017	
551.00	0.017	
551.80	0.017	
552.60	0.017	
553.50	0.017	
554.30	0.017	
555.10	0.016	
555.90	0.016	
556.80	0.016	
557.60	0.016	
558.40	0.016	
559.20	0.016	
560.10	0.016	
560.90	0.016	
561.70	0.016	
562.50	0.016	
563.40	0.016	
564.20	0.016	
565.00	0.016	
565.80	0.016	
566.70	0.016	
567.50	0.016	
568.30	0.016	
569.10	0.016	
570.00	0.016	
570.80	0.015	
571.60	0.016	
572.40	0.015	
573.30	0.016	
574.10	0.016	
574.90	0.016	
575.80	0.016	
576.60	0.016	
577.40	0.016	
578.20	0.016	
579.10	0.016	
579.90	0.016	
580.70	0.016	
581.50	0.016	
582.40	0.016	
583.20	0.016	
584.00	0.016	
584.80	0.016	
585.70	0.016	
586.50	0.016	
587.30	0.016	
588.10	0.016	
588.90	0.016	
589.60	0.016	
590.40	0.016	
591.10	0.015	
591.90	0.015	
592.60	0.015	
593.40	0.015	
594.10	0.015	
594.90	0.015	
595.60	0.015	
596.40	0.016	
597.10	0.015	
597.90	0.015	
598.60	0.015	
599.40	0.016	
600.10	0.016	
600.90	0.015	
601.60	0.016	
602.40	0.016	
603.10	0.016	
603.90	0.016	
604.60	0.016	
605.40	0.016	
606.10	0.016	
606.90	0.015	
607.70	0.015	
608.40	0.015	
609.20	0.015	
609.90	0.015	
610.70	0.015	
611.40	0.015	
612.20	0.015	
612.90	0.015	
613.70	0.015	
614.40	0.015	
615.20	0.015	
615.90	0.015	
616.70	0.015	
617.40	0.015	
618.20	0.015	
618.90	0.015	
619.70	0.015	
620.40	0.015	
621.20	0.015	
621.90	0.015	
622.70	0.015	
623.40	0.015	
624.20	0.015	
624.90	0.015	
625.70	0.015	
626.40	0.015	
627.20	0.015	
627.90	0.016	
628.70	0.016	
629.40	0.016	
630.20	0.016	
630.90	0.015	
631.70	0.015	
632.40	0.015	
633.20	0.015	
633.90	0.015	
634.70	0.015	
635.40	0.016	
636.20	0.016	
636.90	0.016	
637.70	0.016	
638.40	0.016	
639.20	0.016	
639.90	0.015	
640.70	0.015	
641.40	0.015	
642.20	0.015	
642.90	0.015	
643.70	0.015	
644.50	0.015	
645.20	0.015	
646.00	0.015	
646.70	0.015	
647.50	0.015	
648.20	0.015	
649.00	0.015	
649.70	0.015	
650.50	0.015	
651.20	0.015	
652.00	0.015	
652.70	0.015	
653.50	0.015	
654.20	0.015	
655.00	0.015	
655.70	0.015	
656.50	0.015	
657.20	0.015	
658.00	0.015	
658.70	0.015	
659.50	0.015	
660.20	0.015	
661.00	0.015	
661.70	0.015	
662.50	0.015	
663.20	0.015	
664.00	0.015	
664.70	0.015	
665.50	0.015	
666.20	0.015	
667.00	0.015	
667.80	0.015	
668.50	0.015	
669.30	0.015	
670.00	0.015	
670.80	0.015	
671.60	0.015	
672.30	0.015	
673.10	0.015	
673.90	0.015	
674.60	0.015	
675.40	0.015	
676.20	0.015	
676.90	0.015	
677.70	0.015	
678.50	0.015	
679.20	0.015	
680.00	0.015	
680.70	0.015	
681.50	0.015	
682.30	0.015	
683.00	0.015	
683.80	0.015	
684.60	0.015	
685.30	0.015	
686.10	0.015	
686.90	0.015	
687.60	0.015	
688.40	0.015	
689.20	0.015	
689.90	0.015	
690.70	0.015	
691.50	0.015	
692.20	0.015	
693.00	0.016	
693.70	0.016	
694.50	0.015	
695.30	0.015	
696.00	0.015	
696.80	0.015	
697.60	0.015	
698.30	0.015	
699.10	0.015	
699.90	0.015	
700.60	0.015	
701.40	0.015	
702.20	0.015	
702.90	0.015	
703.70	0.015	
704.50	0.015	
705.20	0.015	
706.00	0.015	
706.80	0.015	
707.50	0.015	
708.30	0.015	
709.10	0.015	
709.90	0.015	
710.70	0.015	
711.50	0.015	
712.20	0.015	
713.00	0.015	
713.80	0.015	
714.60	0.015	
715.40	0.015	
716.20	0.015	
716.90	0.015	
717.70	0.015	
718.50	0.015	
719.30	0.015	
720.10	0.015	
720.90	0.015	
721.60	0.015	
722.40	0.015	
723.20	0.015	
724.00	0.015	
724.80	0.015	
725.60	0.015	
726.30	0.015	
727.10	0.015	
727.90	0.015	
728.70	0.015	
729.50	0.015	
730.30	0.015	
731.00	0.015	
731.80	0.015	
732.60	0.016	
733.40	0.015	
734.20	0.015	
735.00	0.015	
735.70	0.015	
736.50	0.015	
737.30	0.015	
738.10	0.015	
738.90	0.015	
739.70	0.015	
740.40	0.015	
741.20	0.015	
742.00	0.015	
742.80	0.015	
743.60	0.015	
744.40	0.015	
745.10	0.015	
745.90	0.015	
746.70	0.015	
747.50	0.015	
748.30	0.015	
749.10	0.015	
749.80	0.015	
750.60	0.015	
751.40	0.015	
752.20	0.015	
753.00	0.015	
753.80	0.015	
754.50	0.015	
755.30	0.015	
756.10	0.015	
756.90	0.015	
757.70	0.015	
758.50	0.015	
759.30	0.015	
760.00	0.015	
760.80	0.015	
761.60	0.015	
762.40	0.015	
763.20	0.015	
764.00	0.015	
764.70	0.015	
765.50	0.015	
766.30	0.015	
767.10	0.015	
767.90	0.015	
768.70	0.015	
769.40	0.015	
770.20	0.015	
771.00	0.015	
771.80	0.015	
772.60	0.015	
773.40	0.015	
774.10	0.015	
774.90	0.016	
775.70	0.015	
776.50	0.016	
777.30	0.016	
778.10	0.015	
778.80	0.016	
779.60	0.016	
780.40	0.016	
781.20	0.016	
782.00	0.015	
782.80	0.015	
783.50	0.016	
784.30	0.015	
785.10	0.015	
785.90	0.015	
786.70	0.015	
787.50	0.015	
788.20	0.015	
789.00	0.015	
789.80	0.015	
790.60	0.015	
791.40	0.015	
792.20	0.015	
792.90	0.015	
793.70	0.015	
794.50	0.015	
795.30	0.015	
796.10	0.015	
796.90	0.015	
797.60	0.016	
798.40	0.016	
799.20	0.015	
800.00	0.015	
800.80	0.015	
801.60	0.015	
802.30	0.015	
803.10	0.015	
803.90	0.015	
804.70	0.015	
805.50	0.015	
806.30	0.015	
807.10	0.015	
807.80	0.015	
808.60	0.015	
809.40	0.015	
810.20	0.015	
811.00	0.015	
811.80	0.015	
812.50	0.015	
813.30	0.015	
814.10	0.015	
814.90	0.015	
815.70	0.015	
816.50	0.015	
817.20	0.015	
818.00	0.015	
818.80	0.015	
819.60	0.015	
820.40	0.015	
821.20	0.015	
821.90	0.015	
822.70	0.015	
823.50	0.016	
824.30	0.016	
825.10	0.015	
825.90	0.015	
826.60	0.015	
827.40	0.015	
828.20	0.015	
829.00	0.015	
829.80	0.015	
830.60	0.015	
831.30	0.015	
832.20	0.015	
833.00	0.015	
833.80	0.015	
834.60	0.015	
835.50	0.015	
836.30	0.015	
837.10	0.015	
838.00	0.015	
838.80	0.015	
839.60	0.015	
840.50	0.015	
841.30	0.015	
842.10	0.015	
842.90	0.015	
843.80	0.015	
844.60	0.015	
845.40	0.015	
846.30	0.015	
847.10	0.015	
847.90	0.015	
848.80	0.015	
849.60	0.015	
850.40	0.015	
851.30	0.015	
852.10	0.015	
852.90	0.015	
853.70	0.015	
854.60	0.015	
855.40	0.015	
856.20	0.015	
857.10	0.015	
857.90	0.015	
858.70	0.015	
859.60	0.015	
860.40	0.015	
861.20	0.015	
862.10	0.015	
862.90	0.015	
863.70	0.015	
864.50	0.015	
865.40	0.015	
866.20	0.015	
867.00	0.015	
867.90	0.015	
868.70	0.015	
869.50	0.015	
870.40	0.015	
871.20	0.015	
872.00	0.015	
872.80	0.015	
873.70	0.015	
874.50	0.015	
875.30	0.015	
876.20	0.015	
877.00	0.015	
877.80	0.015	
878.70	0.015	
879.50	0.015	
880.30	0.015	
881.20	0.016	
882.00	0.015	
882.80	0.016	
883.60	0.015	
884.50	0.015	
885.30	0.015	
886.10	0.016	
887.00	0.016	
887.80	0.016	
888.60	0.016	
889.50	0.016	
890.30	0.016	
891.10	0.016	
892.00	0.016	
892.80	0.016	
893.60	0.016	
894.40	0.015	
895.30	0.015	
896.10	0.015	
896.90	0.015	
897.80	0.015	
898.60	0.015	
899.40	0.015	
Vernier Format 2
act7_187.txt 6/30/116 15:2:34
Run 13
Wavelength	Intensity	
W	I	
nm	rel	

380.50	0.015	
381.30	0.016	
382.20	0.015	
383.10	0.015	
384.00	0.016	
384.90	0.016	
385.80	0.015	
386.70	0.015	
387.60	0.015	
388.50	0.015	
389.40	0.015	
390.20	0.015	
391.10	0.015	
392.00	0.015	
392.90	0.015	
393.80	0.015	
394.70	0.016	
395.60	0.015	
396.50	0.015	
397.40	0.015	
398.30	0.015	
399.10	0.015	
400.00	0.015	
400.90	0.015	
401.80	0.016	
402.70	0.015	
403.60	0.015	
404.50	0.016	
405.40	0.016	
406.30	0.016	
407.20	0.015	
408.00	0.015	
408.90	0.015	
409.80	0.015	
410.70	0.015	
411.60	0.015	
412.50	0.016	
413.40	0.016	
414.30	0.016	
415.20	0.016	
416.00	0.016	
416.90	0.016	
417.80	0.016	
418.70	0.016	
419.60	0.016	
420.50	0.016	
421.40	0.016	
422.30	0.016	
423.20	0.016	
424.10	0.016	
424.90	0.016	
425.80	0.016	
426.70	0.016	
427.60	0.016	
428.50	0.016	
429.40	0.016	
430.30	0.016	
431.20	0.016	
432.10	0.016	
433.00	0.016	
433.80	0.016	
434.70	0.016	
435.60	0.016	
436.50	0.016	
437.40	0.016	
438.30	0.016	
439.20	0.016	
440.10	0.016	
441.00	0.016	
441.90	0.015	
442.70	0.015	
443.60	0.015	
444.50	0.015	
445.40	0.015	
446.30	0.015	
447.20	0.015	
448.10	0.016	
449.00	0.016	
449.90	0.016	
450.80	0.016	
451.60	0.016	
452.50	0.016	
453.40	0.015	
454.30	0.016	
455.20	0.015	
456.10	0.015	
457.00	0.016	
457.90	0.015	
458.80	0.015	
459.60	0.015	
460.50	0.016	
461.40	0.016	
462.30	0.015	
463.20	0.015	
464.10	0.015	
465.00	0.015	
465.90	0.015	
466.80	0.015	
467.70	0.015	
468.50	0.015	
469.40	0.016	
470.30	0.016	
471.20	0.016	
472.10	0.016	
473.00	0.016	
473.90	0.016	
474.80	0.015	
475.70	0.015	
476.60	0.015	
477.40	0.015	
478.30	0.015	
479.20	0.016	
480.10	0.016	
481.00	0.016	
481.90	0.016	
482.80	0.016	
483.70	0.016	
484.60	0.016	
485.50	0.016	
486.30	0.016	
487.20	0.016	
488.10	0.016	
489.00	0.016	
489.90	0.015	
490.80	0.015	
491.70	0.015	
492.60	0.015	
493.50	0.015	
494.40	0.016	
495.20	0.016	
496.10	0.016	
497.00	0.016	
497.90	0.016	
498.80	0.016	
499.70	0.016	
500.60	0.016	
501.50	0.016	
502.40	0.016	
503.20	0.016	
504.10	0.016	
505.00	0.016	
505.90	0.016	
506.80	0.017	
507.70	0.016	
508.60	0.016	
509.50	0.016	
510.40	0.016	
511.30	0.016	
512.20	0.016	
513.00	0.016	
513.80	0.016	
514.60	0.016	
515.50	0.016	
516.30	0.017	
517.10	0.017	
517.90	0.017	
518.80	0.017	
519.60	0.017	
520.40	0.017	
521.20	0.017	
522.10	0.017	
522.90	0.017	
523.70	0.017	
524.50	0.017	
525.40	0.017	
526.20	0.017	
527.00	0.018	
527.80	0.018	
528.70	0.018	
529.50	0.017	
530.30	0.017	
531.10	0.017	
532.00	0.017	
532.80	0.017	
533.60	0.017	
534.50	0.017	
535.30	0.017	
536.10	0.017	
536.90	0.017	
537.80	0.017	
538.60	0.017	
539.40	0.017	
540.20	0.017	
541.10	0.017	
541.90	0.017	
542.70	0.017	
543.50	0.017	
544.40	0.017	
545.20	0.017	
546.00	0.017	
546.80	0.017	
547.70	0.017	
548.50	0.017	
549.30	0.017	
550.10	0.017	
551.00	0.017	
551.80	0.017	
552.60	0.017	
553.50	0.017	
554.30	0.017	
555.10	0.017	
555.90	0.017	
556.80	0.017	
557.60	0.016	
558.40	0.016	
559.20	0.016	
560.10	0.016	
560.90	0.016	
561.70	0.016	
562.50	0.016	
563.40	0.016	
564.20	0.017	
565.00	0.017	
565.80	0.017	
566.70	0.017	
567.50	0.017	
568.30	0.017	
569.10	0.017	
570.00	0.017	
570.80	0.017	
571.60	0.017	
572.40	0.017	
573.30	0.017	
574.10	0.017	
574.90	0.017	
575.80	0.017	
576.60	0.018	
577.40	0.018	
578.20	0.018	
579.10	0.018	
579.90	0.019	
580.70	0.019	
581.50	0.019	
582.40	0.019	
583.20	0.020	
584.00	0.020	
584.80	0.020	
585.70	0.020	
586.50	0.020	
587.30	0.020	
588.10	0.020	
588.90	0.020	
589.60	0.020	
590.40	0.020	
591.10	0.020	
591.90	0.021	
592.60	0.021	
593.40	0.021	
594.10	0.021	
594.90	0.021	
595.60	0.021	
596.40	0.021	
597.10	0.021	
597.90	0.021	
598.60	0.021	
599.40	0.021	
600.10	0.021	
600.90	0.021	
601.60	0.021	
602.40	0.021	
603.10	0.022	
603.90	0.022	
604.60	0.023	
605.40	0.023	
606.10	0.024	
606.90	0.024	
607.70	0.025	
608.40	0.026	
609.20	0.027	
609.90	0.027	
610.70	0.028	
611.40	0.028	
612.20	0.028	
612.90	0.028	
613.70	0.027	
614.40	0.026	
615.20	0.025	
615.90	0.024	
616.70	0.024	
617.40	0.024	
618.20	0.023	
618.90	0.023	
619.70	0.023	
620.40	0.023	
621.20	0.024	
621.90	0.024	
622.70	0.024	
623.40	0.025	
624.20	0.026	
624.90	0.028	
625.70	0.031	
626.40	0.038	
627.20	0.046	
627.90	0.054	
628.70	0.058	
629.40	0.061	
630.20	0.063	
630.90	0.065	
631.70	0.062	
632.40	0.055	
633.20	0.049	
633.90	0.044	
634.70	0.040	
635.40	0.036	
636.20	0.031	
636.90	0.026	
637.70	0.023	
638.40	0.022	
639.20	0.022	
639.90	0.021	
640.70	0.021	
641.40	0.021	
642.20	0.022	
642.90	0.022	
643.70	0.022	
644.50	0.022	
645.20	0.022	
646.00	0.023	
646.70	0.022	
647.50	0.022	
648.20	0.021	
649.00	0.021	
649.70	0.020	
650.50	0.020	
651.20	0.020	
652.00	0.020	
652.70	0.020	
653.50	0.019	
654.20	0.019	
655.00	0.019	
655.70	0.019	
656.50	0.018	
657.20	0.018	
658.00	0.018	
658.70	0.018	
659.50	0.017	
660.20	0.017	
661.00	0.017	
661.70	0.017	
662.50	0.017	
663.20	0.017	
664.00	0.017	
664.70	0.017	
665.50	0.017	
666.20	0.017	
667.00	0.017	
667.80	0.017	
668.50	0.017	
669.30	0.017	
670.00	0.017	
670.80	0.017	
671.60	0.017	
672.30	0.017	
673.10	0.016	
673.90	0.016	
674.60	0.016	
675.40	0.016	
676.20	0.016	
676.90	0.016	
677.70	0.017	
678.50	0.017	
679.20	0.017	
680.00	0.017	
680.70	0.017	
681.50	0.017	
682.30	0.017	
683.00	0.016	
683.80	0.016	
684.60	0.017	
685.30	0.017	
686.10	0.016	
686.90	0.016	
687.60	0.016	
688.40	0.016	
689.20	0.016	
689.90	0.016	
690.70	0.016	
691.50	0.016	
692.20	0.016	
693.00	0.016	
693.70	0.016	
694.50	0.016	
695.30	0.016	
696.00	0.016	
696.80	0.016	
697.60	0.016	
698.30	0.016	
699.10	0.016	
699.90	0.016	
700.60	0.016	
701.40	0.016	
702.20	0.016	
702.90	0.016	
703.70	0.016	
704.50	0.016	
705.20	0.016	
706.00	0.016	
706.80	0.016	
707.50	0.016	
708.30	0.016	
709.10	0.016	
709.90	0.016	
710.70	0.016	
711.50	0.016	
712.20	0.016	
713.00	0.016	
713.80	0.016	
714.60	0.016	
715.40	0.016	
716.20	0.016	
716.90	0.016	
717.70	0.016	
718.50	0.016	
719.30	0.016	
720.10	0.016	
720.90	0.016	
721.60	0.016	
722.40	0.016	
723.20	0.016	
724.00	0.016	
724.80	0.016	
725.60	0.016	
726.30	0.016	
727.10	0.016	
727.90	0.016	
728.70	0.016	
729.50	0.016	
730.30	0.015	
731.00	0.015	
731.80	0.015	
732.60	0.015	
733.40	0.015	
734.20	0.016	
735.00	0.016	
735.70	0.016	
736.50	0.016	
737.30	0.016	
738.10	0.016	
738.90	0.016	
739.70	0.016	
740.40	0.016	
741.20	0.016	
742.00	0.016	
742.80	0.016	
743.60	0.016	
744.40	0.016	
745.10	0.016	
745.90	0.016	
746.70	0.016	
747.50	0.016	
748.30	0.016	
749.10	0.015	
749.80	0.015	
750.60	0.015	
751.40	0.016	
752.20	0.016	
753.00	0.016	
753.80	0.016	
754.50	0.016	
755.30	0.016	
756.10	0.016	
756.90	0.016	
757.70	0.016	
758.50	0.016	
759.30	0.016	
760.00	0.016	
760.80	0.016	
761.60	0.016	
762.40	0.016	
763.20	0.016	
764.00	0.016	
764.70	0.016	
765.50	0.016	
766.30	0.016	
767.10	0.016	
767.90	0.016	
768.70	0.016	
769.40	0.016	
770.20	0.016	
771.00	0.016	
771.80	0.016	
772.60	0.016	
773.40	0.016	
774.10	0.016	
774.90	0.016	
775.70	0.016	
776.50	0.016	
777.30	0.016	
778.10	0.015	
778.80	0.015	
779.60	0.015	
780.40	0.015	
781.20	0.015	
782.00	0.015	
782.80	0.016	
783.50	0.016	
784.30	0.016	
785.10	0.016	
785.90	0.016	
786.70	0.016	
787.50	0.015	
788.20	0.015	
789.00	0.015	
789.80	0.015	
790.60	0.015	
791.40	0.015	
792.20	0.015	
792.90	0.016	
793.70	0.016	
794.50	0.016	
795.30	0.016	
796.10	0.016	
796.90	0.016	
797.60	0.016	
798.40	0.016	
799.20	0.016	
800.00	0.015	
800.80	0.015	
801.60	0.015	
802.30	0.015	
803.10	0.015	
803.90	0.015	
804.70	0.016	
805.50	0.016	
806.30	0.016	
807.10	0.016	
807.80	0.016	
808.60	0.016	
809.40	0.016	
810.20	0.016	
811.00	0.016	
811.80	0.016	
812.50	0.015	
813.30	0.016	
814.10	0.016	
814.90	0.015	
815.70	0.015	
816.50	0.015	
817.20	0.016	
818.00	0.016	
818.80	0.016	
819.60	0.016	
820.40	0.016	
821.20	0.016	
821.90	0.016	
822.70	0.016	
823.50	0.016	
824.30	0.016	
825.10	0.016	
825.90	0.016	
826.60	0.016	
827.40	0.016	
828.20	0.016	
829.00	0.016	
829.80	0.016	
830.60	0.016	
831.30	0.016	
832.20	0.015	
833.00	0.015	
833.80	0.015	
834.60	0.015	
835.50	0.015	
836.30	0.015	
837.10	0.015	
838.00	0.016	
838.80	0.016	
839.60	0.016	
840.50	0.015	
841.30	0.015	
842.10	0.016	
842.90	0.015	
843.80	0.015	
844.60	0.015	
845.40	0.015	
846.30	0.015	
847.10	0.015	
847.90	0.015	
848.80	0.015	
849.60	0.015	
850.40	0.015	
851.30	0.015	
852.10	0.015	
852.90	0.015	
853.70	0.015	
854.60	0.015	
855.40	0.016	
856.20	0.015	
857.10	0.015	
857.90	0.015	
858.70	0.015	
859.60	0.015	
860.40	0.015	
861.20	0.015	
862.10	0.015	
862.90	0.015	
863.70	0.015	
864.50	0.016	
865.40	0.016	
866.20	0.016	
867.00	0.016	
867.90	0.016	
868.70	0.016	
869.50	0.016	
870.40	0.016	
871.20	0.016	
872.00	0.016	
872.80	0.016	
873.70	0.016	
874.50	0.016	
875.30	0.016	
876.20	0.016	
877.00	0.015	
877.80	0.015	
878.70	0.015	
879.50	0.015	
880.30	0.015	
881.20	0.015	
882.00	0.015	
882.80	0.015	
883.60	0.016	
884.50	0.016	
885.30	0.016	
886.10	0.016	
887.00	0.016	
887.80	0.015	
888.60	0.015	
889.50	0.015	
890.30	0.015	
891.10	0.015	
892.00	0.015	
892.80	0.015	
893.60	0.015	
894.40	0.015	
895.30	0.015	
896.10	0.015	
896.90	0.015	
897.80	0.015	
898.60	0.015	
899.40	0.015	
Vernier Format 2
act7_187.txt 6/30/116 15:2:34
Run 14
Wavelength	Intensity	
W	I	
nm	rel	

380.50	0.016	
381.30	0.016	
382.20	0.016	
383.10	0.016	
384.00	0.016	
384.90	0.016	
385.80	0.016	
386.70	0.016	
387.60	0.016	
388.50	0.016	
389.40	0.016	
390.20	0.016	
391.10	0.016	
392.00	0.016	
392.90	0.016	
393.80	0.016	
394.70	0.016	
395.60	0.016	
396.50	0.016	
397.40	0.016	
398.30	0.016	
399.10	0.016	
400.00	0.016	
400.90	0.016	
401.80	0.016	
402.70	0.016	
403.60	0.016	
404.50	0.016	
405.40	0.016	
406.30	0.016	
407.20	0.016	
408.00	0.016	
408.90	0.016	
409.80	0.016	
410.70	0.016	
411.60	0.016	
412.50	0.016	
413.40	0.016	
414.30	0.017	
415.20	0.017	
416.00	0.017	
416.90	0.017	
417.80	0.017	
418.70	0.017	
419.60	0.017	
420.50	0.017	
421.40	0.017	
422.30	0.017	
423.20	0.017	
424.10	0.017	
424.90	0.017	
425.80	0.017	
426.70	0.018	
427.60	0.018	
428.50	0.018	
429.40	0.018	
430.30	0.018	
431.20	0.018	
432.10	0.018	
433.00	0.018	
433.80	0.018	
434.70	0.018	
435.60	0.018	
436.50	0.018	
437.40	0.018	
438.30	0.018	
439.20	0.018	
440.10	0.018	
441.00	0.018	
441.90	0.018	
442.70	0.018	
443.60	0.018	
444.50	0.018	
445.40	0.018	
446.30	0.018	
447.20	0.018	
448.10	0.019	
449.00	0.019	
449.90	0.018	
450.80	0.018	
451.60	0.018	
452.50	0.018	
453.40	0.018	
454.30	0.018	
455.20	0.018	
456.10	0.018	
457.00	0.018	
457.90	0.018	
458.80	0.018	
459.60	0.018	
460.50	0.018	
461.40	0.018	
462.30	0.018	
463.20	0.018	
464.10	0.018	
465.00	0.018	
465.90	0.018	
466.80	0.018	
467.70	0.018	
468.50	0.018	
469.40	0.018	
470.30	0.018	
471.20	0.018	
472.10	0.018	
473.00	0.018	
473.90	0.018	
474.80	0.018	
475.70	0.018	
476.60	0.018	
477.40	0.018	
478.30	0.018	
479.20	0.018	
480.10	0.018	
481.00	0.019	
481.90	0.019	
482.80	0.019	
483.70	0.019	
484.60	0.019	
485.50	0.019	
486.30	0.019	
487.20	0.019	
488.10	0.019	
489.00	0.019	
489.90	0.019	
490.80	0.019	
491.70	0.019	
492.60	0.020	
493.50	0.020	
494.40	0.020	
495.20	0.020	
496.10	0.021	
497.00	0.021	
497.90	0.021	
498.80	0.022	
499.70	0.022	
500.60	0.022	
501.50	0.023	
502.40	0.023	
503.20	0.023	
504.10	0.024	
505.00	0.024	
505.90	0.025	
506.80	0.025	
507.70	0.026	
508.60	0.026	
509.50	0.027	
510.40	0.028	
511.30	0.029	
512.20	0.029	
513.00	0.030	
513.80	0.031	
514.60	0.032	
515.50	0.033	
516.30	0.034	
517.10	0.035	
517.90	0.037	
518.80	0.038	
519.60	0.039	
520.40	0.040	
521.20	0.041	
522.10	0.042	
522.90	0.043	
523.70	0.043	
524.50	0.044	
525.40	0.045	
526.20	0.045	
527.00	0.045	
527.80	0.045	
528.70	0.045	
529.50	0.045	
530.30	0.045	
531.10	0.044	
532.00	0.044	
532.80	0.043	
533.60	0.043	
534.50	0.042	
535.30	0.041	
536.10	0.040	
536.90	0.040	
537.80	0.039	
538.60	0.038	
539.40	0.037	
540.20	0.037	
541.10	0.036	
541.90	0.035	
542.70	0.035	
543.50	0.034	
544.40	0.033	
545.20	0.033	
546.00	0.033	
546.80	0.032	
547.70	0.032	
548.50	0.031	
549.30	0.030	
550.10	0.030	
551.00	0.030	
551.80	0.029	
552.60	0.029	
553.50	0.029	
554.30	0.028	
555.10	0.028	
555.90	0.028	
556.80	0.028	
557.60	0.027	
558.40	0.027	
559.20	0.027	
560.10	0.027	
560.90	0.026	
561.70	0.026	
562.50	0.025	
563.40	0.025	
564.20	0.025	
565.00	0.025	
565.80	0.025	
566.70	0.024	
567.50	0.024	
568.30	0.024	
569.10	0.024	
570.00	0.024	
570.80	0.023	
571.60	0.023	
572.40	0.023	
573.30	0.022	
574.10	0.022	
574.90	0.022	
575.80	0.022	
576.60	0.021	
577.40	0.021	
578.20	0.021	
579.10	0.021	
579.90	0.021	
580.70	0.021	
581.50	0.021	
582.40	0.021	
583.20	0.020	
584.00	0.020	
584.80	0.020	
585.70	0.020	
586.50	0.020	
587.30	0.020	
588.10	0.020	
588.90	0.020	
589.60	0.019	
590.40	0.019	
591.10	0.019	
591.90	0.019	
592.60	0.019	
593.40	0.019	
594.10	0.019	
594.90	0.019	
595.60	0.019	
596.40	0.019	
597.10	0.019	
597.90	0.019	
598.60	0.019	
599.40	0.019	
600.10	0.018	
600.90	0.018	
601.60	0.018	
602.40	0.018	
603.10	0.018	
603.90	0.019	
604.60	0.019	
605.40	0.019	
606.10	0.020	
606.90	0.020	
607.70	0.020	
608.40	0.020	
609.20	0.020	
609.90	0.020	
610.70	0.021	
611.40	0.021	
612.20	0.021	
612.90	0.021	
613.70	0.021	
614.40	0.020	
615.20	0.020	
615.90	0.020	
616.70	0.019	
617.40	0.019	
618.20	0.019	
618.90	0.019	
619.70	0.019	
620.40	0.019	
621.20	0.020	
621.90	0.020	
622.70	0.020	
623.40	0.020	
624.20	0.020	
624.90	0.020	
625.70	0.021	
626.40	0.022	
627.20	0.023	
627.90	0.024	
628.70	0.025	
629.40	0.026	
630.20	0.026	
630.90	0.026	
631.70	0.026	
632.40	0.026	
633.20	0.025	
633.90	0.024	
634.70	0.023	
635.40	0.022	
636.20	0.021	
636.90	0.020	
637.70	0.019	
638.40	0.019	
639.20	0.018	
639.90	0.018	
640.70	0.018	
641.40	0.018	
642.20	0.018	
642.90	0.018	
643.70	0.018	
644.50	0.019	
645.20	0.019	
646.00	0.019	
646.70	0.019	
647.50	0.019	
648.20	0.018	
649.00	0.018	
649.70	0.018	
650.50	0.018	
651.20	0.017	
652.00	0.017	
652.70	0.017	
653.50	0.017	
654.20	0.017	
655.00	0.017	
655.70	0.017	
656.50	0.017	
657.20	0.017	
658.00	0.017	
658.70	0.017	
659.50	0.017	
660.20	0.017	
661.00	0.017	
661.70	0.016	
662.50	0.017	
663.20	0.017	
664.00	0.017	
664.70	0.016	
665.50	0.016	
666.20	0.016	
667.00	0.016	
667.80	0.016	
668.50	0.016	
669.30	0.016	
670.00	0.016	
670.80	0.016	
671.60	0.016	
672.30	0.016	
673.10	0.016	
673.90	0.016	
674.60	0.016	
675.40	0.016	
676.20	0.016	
676.90	0.016	
677.70	0.016	
678.50	0.016	
679.20	0.016	
680.00	0.016	
680.70	0.016	
681.50	0.016	
682.30	0.016	
683.00	0.016	
683.80	0.016	
684.60	0.016	
685.30	0.016	
686.10	0.016	
686.90	0.016	
687.60	0.016	
688.40	0.016	
689.20	0.016	
689.90	0.016	
690.70	0.016	
691.50	0.016	
692.20	0.016	
693.00	0.016	
693.70	0.016	
694.50	0.016	
695.30	0.016	
696.00	0.016	
696.80	0.016	
697.60	0.016	
698.30	0.016	
699.10	0.016	
699.90	0.016	
700.60	0.016	
701.40	0.016	
702.20	0.016	
702.90	0.016	
703.70	0.016	
704.50	0.016	
705.20	0.016	
706.00	0.016	
706.80	0.016	
707.50	0.016	
708.30	0.016	
709.10	0.016	
709.90	0.016	
710.70	0.016	
711.50	0.016	
712.20	0.016	
713.00	0.016	
713.80	0.016	
714.60	0.016	
715.40	0.016	
716.20	0.016	
716.90	0.016	
717.70	0.016	
718.50	0.016	
719.30	0.016	
720.10	0.016	
720.90	0.016	
721.60	0.016	
722.40	0.016	
723.20	0.016	
724.00	0.016	
724.80	0.016	
725.60	0.016	
726.30	0.016	
727.10	0.016	
727.90	0.016	
728.70	0.016	
729.50	0.016	
730.30	0.016	
731.00	0.016	
731.80	0.016	
732.60	0.016	
733.40	0.016	
734.20	0.016	
735.00	0.016	
735.70	0.016	
736.50	0.016	
737.30	0.016	
738.10	0.015	
738.90	0.015	
739.70	0.015	
740.40	0.015	
741.20	0.015	
742.00	0.015	
742.80	0.015	
743.60	0.015	
744.40	0.016	
745.10	0.016	
745.90	0.016	
746.70	0.016	
747.50	0.016	
748.30	0.016	
749.10	0.016	
749.80	0.016	
750.60	0.016	
751.40	0.016	
752.20	0.016	
753.00	0.016	
753.80	0.016	
754.50	0.016	
755.30	0.016	
756.10	0.016	
756.90	0.016	
757.70	0.016	
758.50	0.016	
759.30	0.016	
760.00	0.016	
760.80	0.016	
761.60	0.016	
762.40	0.016	
763.20	0.016	
764.00	0.016	
764.70	0.016	
765.50	0.016	
766.30	0.015	
767.10	0.015	
767.90	0.015	
768.70	0.015	
769.40	0.015	
770.20	0.015	
771.00	0.015	
771.80	0.015	
772.60	0.015	
773.40	0.015	
774.10	0.015	
774.90	0.015	
775.70	0.015	
776.50	0.015	
777.30	0.015	
778.10	0.015	
778.80	0.015	
779.60	0.016	
780.40	0.016	
781.20	0.016	
782.00	0.016	
782.80	0.016	
783.50	0.016	
784.30	0.015	
785.10	0.015	
785.90	0.015	
786.70	0.015	
787.50	0.015	
788.20	0.015	
789.00	0.015	
789.80	0.015	
790.60	0.015	
791.40	0.015	
792.20	0.016	
792.90	0.015	
793.70	0.015	
794.50	0.015	
795.30	0.016	
796.10	0.016	
796.90	0.016	
797.60	0.016	
798.40	0.016	
799.20	0.016	
800.00	0.016	
800.80	0.016	
801.60	0.016	
802.30	0.016	
803.10	0.016	
803.90	0.016	
804.70	0.016	
805.50	0.016	
806.30	0.015	
807.10	0.016	
807.80	0.016	
808.60	0.016	
809.40	0.016	
810.20	0.016	
811.00	0.016	
811.80	0.016	
812.50	0.016	
813.30	0.016	
814.10	0.016	
814.90	0.016	
815.70	0.016	
816.50	0.016	
817.20	0.016	
818.00	0.016	
818.80	0.016	
819.60	0.016	
820.40	0.016	
821.20	0.016	
821.90	0.016	
822.70	0.016	
823.50	0.016	
824.30	0.016	
825.10	0.016	
825.90	0.016	
826.60	0.016	
827.40	0.016	
828.20	0.016	
829.00	0.016	
829.80	0.016	
830.60	0.016	
831.30	0.016	
832.20	0.016	
833.00	0.016	
833.80	0.016	
834.60	0.016	
835.50	0.016	
836.30	0.016	
837.10	0.016	
838.00	0.016	
838.80	0.016	
839.60	0.016	
840.50	0.015	
841.30	0.015	
842.10	0.016	
842.90	0.015	
843.80	0.016	
844.60	0.016	
845.40	0.016	
846.30	0.016	
847.10	0.015	
847.90	0.015	
848.80	0.015	
849.60	0.015	
850.40	0.015	
851.30	0.015	
852.10	0.015	
852.90	0.015	
853.70	0.015	
854.60	0.015	
855.40	0.015	
856.20	0.015	
857.10	0.015	
857.90	0.015	
858.70	0.015	
859.60	0.016	
860.40	0.016	
861.20	0.016	
862.10	0.016	
862.90	0.016	
863.70	0.016	
864.50	0.016	
865.40	0.016	
866.20	0.016	
867.00	0.016	
867.90	0.016	
868.70	0.016	
869.50	0.016	
870.40	0.016	
871.20	0.015	
872.00	0.015	
872.80	0.015	
873.70	0.015	
874.50	0.015	
875.30	0.015	
876.20	0.015	
877.00	0.015	
877.80	0.015	
878.70	0.015	
879.50	0.015	
880.30	0.015	
881.20	0.015	
882.00	0.015	
882.80	0.015	
883.60	0.015	
884.50	0.016	
885.30	0.016	
886.10	0.016	
887.00	0.015	
887.80	0.015	
888.60	0.016	
889.50	0.016	
890.30	0.015	
891.10	0.015	
892.00	0.015	
892.80	0.015	
893.60	0.015	
894.40	0.015	
895.30	0.015	
896.10	0.015	
896.90	0.016	
897.80	0.016	
898.60	0.016	
899.40	0.016	
Vernier Format 2
act7_187.txt 6/30/116 15:2:34
Run 15
Wavelength	Intensity	
W	I	
nm	rel	

380.50	0.016	
381.30	0.016	
382.20	0.016	
383.10	0.016	
384.00	0.016	
384.90	0.016	
385.80	0.016	
386.70	0.016	
387.60	0.016	
388.50	0.016	
389.40	0.016	
390.20	0.016	
391.10	0.016	
392.00	0.016	
392.90	0.016	
393.80	0.017	
394.70	0.017	
395.60	0.017	
396.50	0.017	
397.40	0.017	
398.30	0.017	
399.10	0.017	
400.00	0.017	
400.90	0.017	
401.80	0.017	
402.70	0.018	
403.60	0.018	
404.50	0.018	
405.40	0.018	
406.30	0.018	
407.20	0.018	
408.00	0.019	
408.90	0.019	
409.80	0.019	
410.70	0.019	
411.60	0.019	
412.50	0.019	
413.40	0.020	
414.30	0.020	
415.20	0.020	
416.00	0.021	
416.90	0.021	
417.80	0.021	
418.70	0.022	
419.60	0.022	
420.50	0.023	
421.40	0.023	
422.30	0.024	
423.20	0.024	
424.10	0.025	
424.90	0.025	
425.80	0.025	
426.70	0.026	
427.60	0.026	
428.50	0.026	
429.40	0.027	
430.30	0.027	
431.20	0.027	
432.10	0.028	
433.00	0.028	
433.80	0.028	
434.70	0.029	
435.60	0.030	
436.50	0.030	
437.40	0.030	
438.30	0.031	
439.20	0.031	
440.10	0.031	
441.00	0.032	
441.90	0.032	
442.70	0.032	
443.60	0.033	
444.50	0.033	
445.40	0.033	
446.30	0.033	
447.20	0.033	
448.10	0.032	
449.00	0.032	
449.90	0.031	
450.80	0.031	
451.60	0.030	
452.50	0.029	
453.40	0.028	
454.30	0.027	
455.20	0.026	
456.10	0.025	
457.00	0.025	
457.90	0.024	
458.80	0.024	
459.60	0.024	
460.50	0.023	
461.40	0.023	
462.30	0.023	
463.20	0.022	
464.10	0.022	
465.00	0.022	
465.90	0.021	
466.80	0.021	
467.70	0.021	
468.50	0.020	
469.40	0.020	
470.30	0.020	
471.20	0.020	
472.10	0.020	
473.00	0.019	
473.90	0.019	
474.80	0.019	
475.70	0.019	
476.60	0.019	
477.40	0.019	
478.30	0.019	
479.20	0.019	
480.10	0.019	
481.00	0.019	
481.90	0.019	
482.80	0.019	
483.70	0.018	
484.60	0.018	
485.50	0.018	
486.30	0.018	
487.20	0.018	
488.10	0.018	
489.00	0.018	
489.90	0.018	
490.80	0.018	
491.70	0.018	
492.60	0.018	
493.50	0.018	
494.40	0.018	
495.20	0.018	
496.10	0.018	
497.00	0.018	
497.90	0.018	
498.80	0.018	
499.70	0.018	
500.60	0.018	
501.50	0.018	
502.40	0.018	
503.20	0.019	
504.10	0.019	
505.00	0.019	
505.90	0.019	
506.80	0.019	
507.70	0.019	
508.60	0.019	
509.50	0.019	
510.40	0.019	
511.30	0.019	
512.20	0.019	
513.00	0.019	
513.80	0.020	
514.60	0.019	
515.50	0.019	
516.30	0.019	
517.10	0.019	
517.90	0.019	
518.80	0.019	
519.60	0.019	
520.40	0.019	
521.20	0.019	
522.10	0.019	
522.90	0.019	
523.70	0.018	
524.50	0.018	
525.40	0.018	
526.20	0.018	
527.00	0.018	
527.80	0.018	
528.70	0.018	
529.50	0.018	
530.30	0.018	
531.10	0.018	
532.00	0.018	
532.80	0.018	
533.60	0.017	
534.50	0.017	
535.30	0.017	
536.10	0.017	
536.90	0.017	
537.80	0.017	
538.60	0.017	
539.40	0.017	
540.20	0.017	
541.10	0.017	
541.90	0.016	
542.70	0.016	
543.50	0.017	
544.40	0.017	
545.20	0.016	
546.00	0.016	
546.80	0.016	
547.70	0.016	
548.50	0.016	
549.30	0.016	
550.10	0.016	
551.00	0.016	
551.80	0.016	
552.60	0.016	
553.50	0.016	
554.30	0.016	
555.10	0.016	
555.90	0.016	
556.80	0.016	
557.60	0.016	
558.40	0.016	
559.20	0.016	
560.10	0.016	
560.90	0.016	
561.70	0.016	
562.50	0.016	
563.40	0.016	
564.20	0.016	
565.00	0.016	
565.80	0.016	
566.70	0.016	
567.50	0.016	
568.30	0.016	
569.10	0.015	
570.00	0.016	
570.80	0.016	
571.60	0.016	
572.40	0.016	
573.30	0.016	
574.10	0.016	
574.90	0.016	
575.80	0.016	
576.60	0.016	
577.40	0.016	
578.20	0.016	
579.10	0.016	
579.90	0.016	
580.70	0.016	
581.50	0.016	
582.40	0.016	
583.20	0.016	
584.00	0.016	
584.80	0.016	
585.70	0.016	
586.50	0.016	
587.30	0.015	
588.10	0.016	
588.90	0.016	
589.60	0.016	
590.40	0.016	
591.10	0.016	
591.90	0.016	
592.60	0.016	
593.40	0.016	
594.10	0.016	
594.90	0.016	
595.60	0.016	
596.40	0.016	
597.10	0.016	
597.90	0.016	
598.60	0.016	
599.40	0.016	
600.10	0.015	
600.90	0.016	
601.60	0.016	
602.40	0.016	
603.10	0.016	
603.90	0.016	
604.60	0.015	
605.40	0.015	
606.10	0.015	
606.90	0.015	
607.70	0.016	
608.40	0.015	
609.20	0.015	
609.90	0.016	
610.70	0.016	
611.40	0.015	
612.20	0.015	
612.90	0.015	
613.70	0.016	
614.40	0.016	
615.20	0.016	
615.90	0.016	
616.70	0.016	
617.40	0.016	
618.20	0.016	
618.90	0.016	
619.70	0.016	
620.40	0.015	
621.20	0.015	
621.90	0.016	
622.70	0.016	
623.40	0.016	
624.20	0.016	
624.90	0.016	
625.70	0.016	
626.40	0.016	
627.20	0.016	
627.90	0.016	
628.70	0.016	
629.40	0.016	
630.20	0.016	
630.90	0.016	
631.70	0.016	
632.40	0.016	
633.20	0.016	
633.90	0.016	
634.70	0.016	
635.40	0.016	
636.20	0.015	
636.90	0.015	
637.70	0.015	
638.40	0.015	
639.20	0.015	
639.90	0.015	
640.70	0.015	
641.40	0.015	
642.20	0.015	
642.90	0.015	
643.70	0.015	
644.50	0.015	
645.20	0.015	
646.00	0.015	
646.70	0.015	
647.50	0.015	
648.20	0.015	
649.00	0.015	
649.70	0.015	
650.50	0.015	
651.20	0.015	
652.00	0.015	
652.70	0.015	
653.50	0.015	
654.20	0.015	
655.00	0.015	
655.70	0.015	
656.50	0.015	
657.20	0.015	
658.00	0.015	
658.70	0.015	
659.50	0.015	
660.20	0.015	
661.00	0.015	
661.70	0.015	
662.50	0.016	
663.20	0.016	
664.00	0.016	
664.70	0.015	
665.50	0.016	
666.20	0.015	
667.00	0.015	
667.80	0.015	
668.50	0.015	
669.30	0.015	
670.00	0.015	
670.80	0.015	
671.60	0.015	
672.30	0.015	
673.10	0.016	
673.90	0.016	
674.60	0.016	
675.40	0.016	
676.20	0.016	
676.90	0.016	
677.70	0.016	
678.50	0.016	
679.20	0.015	
680.00	0.015	
680.70	0.015	
681.50	0.015	
682.30	0.015	
683.00	0.015	
683.80	0.015	
684.60	0.015	
685.30	0.015	
686.10	0.015	
686.90	0.015	
687.60	0.015	
688.40	0.015	
689.20	0.015	
689.90	0.015	
690.70	0.016	
691.50	0.016	
692.20	0.016	
693.00	0.016	
693.70	0.016	
694.50	0.016	
695.30	0.016	
696.00	0.015	
696.80	0.015	
697.60	0.015	
698.30	0.015	
699.10	0.015	
699.90	0.015	
700.60	0.015	
701.40	0.015	
702.20	0.015	
702.90	0.015	
703.70	0.015	
704.50	0.015	
705.20	0.015	
706.00	0.016	
706.80	0.016	
707.50	0.016	
708.30	0.016	
709.10	0.016	
709.90	0.016	
710.70	0.016	
711.50	0.016	
712.20	0.016	
713.00	0.016	
713.80	0.015	
714.60	0.015	
715.40	0.015	
716.20	0.015	
716.90	0.015	
717.70	0.015	
718.50	0.015	
719.30	0.015	
720.10	0.015	
720.90	0.015	
721.60	0.015	
722.40	0.015	
723.20	0.015	
724.00	0.015	
724.80	0.015	
725.60	0.015	
726.30	0.016	
727.10	0.016	
727.90	0.016	
728.70	0.016	
729.50	0.016	
730.30	0.016	
731.00	0.016	
731.80	0.015	
732.60	0.015	
733.40	0.015	
734.20	0.015	
735.00	0.015	
735.70	0.015	
736.50	0.015	
737.30	0.015	
738.10	0.015	
738.90	0.015	
739.70	0.015	
740.40	0.015	
741.20	0.015	
742.00	0.015	
742.80	0.015	
743.60	0.015	
744.40	0.015	
745.10	0.015	
745.90	0.015	
746.70	0.015	
747.50	0.015	
748.30	0.015	
749.10	0.015	
749.80	0.015	
750.60	0.015	
751.40	0.015	
752.20	0.015	
753.00	0.015	
753.80	0.015	
754.50	0.015	
755.30	0.015	
756.10	0.015	
756.90	0.015	
757.70	0.015	
758.50	0.015	
759.30	0.015	
760.00	0.015	
760.80	0.015	
761.60	0.016	
762.40	0.016	
763.20	0.016	
764.00	0.015	
764.70	0.016	
765.50	0.015	
766.30	0.015	
767.10	0.015	
767.90	0.015	
768.70	0.015	
769.40	0.015	
770.20	0.015	
771.00	0.015	
771.80	0.015	
772.60	0.015	
773.40	0.015	
774.10	0.015	
774.90	0.015	
775.70	0.016	
776.50	0.015	
777.30	0.015	
778.10	0.015	
778.80	0.015	
779.60	0.015	
780.40	0.015	
781.20	0.015	
782.00	0.015	
782.80	0.015	
783.50	0.015	
784.30	0.015	
785.10	0.015	
785.90	0.015	
786.70	0.015	
787.50	0.015	
788.20	0.015	
789.00	0.015	
789.80	0.015	
790.60	0.016	
791.40	0.015	
792.20	0.016	
792.90	0.016	
793.70	0.016	
794.50	0.016	
795.30	0.016	
796.10	0.016	
796.90	0.016	
797.60	0.016	
798.40	0.016	
799.20	0.016	
800.00	0.016	
800.80	0.016	
801.60	0.016	
802.30	0.015	
803.10	0.015	
803.90	0.015	
804.70	0.015	
805.50	0.015	
806.30	0.015	
807.10	0.015	
807.80	0.015	
808.60	0.015	
809.40	0.015	
810.20	0.015	
811.00	0.015	
811.80	0.015	
812.50	0.015	
813.30	0.015	
814.10	0.015	
814.90	0.015	
815.70	0.015	
816.50	0.015	
817.20	0.015	
818.00	0.016	
818.80	0.015	
819.60	0.016	
820.40	0.016	
821.20	0.016	
821.90	0.016	
822.70	0.016	
823.50	0.016	
824.30	0.016	
825.10	0.016	
825.90	0.016	
826.60	0.016	
827.40	0.016	
828.20	0.016	
829.00	0.016	
829.80	0.016	
830.60	0.016	
831.30	0.016	
832.20	0.016	
833.00	0.016	
833.80	0.016	
834.60	0.015	
835.50	0.015	
836.30	0.015	
837.10	0.015	
838.00	0.015	
838.80	0.015	
839.60	0.015	
840.50	0.015	
841.30	0.015	
842.10	0.015	
842.90	0.015	
843.80	0.015	
844.60	0.015	
845.40	0.015	
846.30	0.015	
847.10	0.015	
847.90	0.016	
848.80	0.016	
849.60	0.016	
850.40	0.015	
851.30	0.015	
852.10	0.015	
852.90	0.015	
853.70	0.015	
854.60	0.015	
855.40	0.015	
856.20	0.015	
857.10	0.015	
857.90	0.015	
858.70	0.015	
859.60	0.015	
860.40	0.015	
861.20	0.015	
862.10	0.015	
862.90	0.015	
863.70	0.015	
864.50	0.015	
865.40	0.015	
866.20	0.015	
867.00	0.015	
867.90	0.015	
868.70	0.015	
869.50	0.015	
870.40	0.015	
871.20	0.015	
872.00	0.015	
872.80	0.015	
873.70	0.015	
874.50	0.015	
875.30	0.015	
876.20	0.015	
877.00	0.015	
877.80	0.015	
878.70	0.015	
879.50	0.015	
880.30	0.015	
881.20	0.015	
882.00	0.015	
882.80	0.015	
883.60	0.015	
884.50	0.015	
885.30	0.015	
886.10	0.016	
887.00	0.016	
887.80	0.016	
888.60	0.016	
889.50	0.016	
890.30	0.016	
891.10	0.016	
892.00	0.015	
892.80	0.015	
893.60	0.015	
894.40	0.015	
895.30	0.015	
896.10	0.015	
896.90	0.015	
897.80	0.015	
898.60	0.015	
899.40	0.015	
Vernier Format 2
act7_187.txt 6/30/116 15:2:34
Run 16
Wavelength	Intensity	
W	I	
nm	rel	

380.50	0.016	
381.30	0.016	
382.20	0.016	
383.10	0.016	
384.00	0.016	
384.90	0.016	
385.80	0.016	
386.70	0.015	
387.60	0.015	
388.50	0.015	
389.40	0.015	
390.20	0.015	
391.10	0.015	
392.00	0.015	
392.90	0.015	
393.80	0.015	
394.70	0.015	
395.60	0.015	
396.50	0.015	
397.40	0.015	
398.30	0.015	
399.10	0.015	
400.00	0.015	
400.90	0.015	
401.80	0.015	
402.70	0.015	
403.60	0.015	
404.50	0.015	
405.40	0.015	
406.30	0.015	
407.20	0.015	
408.00	0.015	
408.90	0.015	
409.80	0.015	
410.70	0.015	
411.60	0.015	
412.50	0.015	
413.40	0.015	
414.30	0.015	
415.20	0.015	
416.00	0.015	
416.90	0.016	
417.80	0.015	
418.70	0.016	
419.60	0.015	
420.50	0.015	
421.40	0.015	
422.30	0.015	
423.20	0.015	
424.10	0.015	
424.90	0.015	
425.80	0.015	
426.70	0.015	
427.60	0.015	
428.50	0.015	
429.40	0.015	
430.30	0.015	
431.20	0.016	
432.10	0.016	
433.00	0.016	
433.80	0.016	
434.70	0.016	
435.60	0.016	
436.50	0.016	
437.40	0.016	
438.30	0.016	
439.20	0.016	
440.10	0.015	
441.00	0.015	
441.90	0.015	
442.70	0.015	
443.60	0.015	
444.50	0.015	
445.40	0.015	
446.30	0.016	
447.20	0.015	
448.10	0.015	
449.00	0.015	
449.90	0.016	
450.80	0.016	
451.60	0.016	
452.50	0.016	
453.40	0.016	
454.30	0.016	
455.20	0.016	
456.10	0.015	
457.00	0.015	
457.90	0.015	
458.80	0.015	
459.60	0.015	
460.50	0.015	
461.40	0.015	
462.30	0.015	
463.20	0.015	
464.10	0.015	
465.00	0.016	
465.90	0.016	
466.80	0.016	
467.70	0.016	
468.50	0.016	
469.40	0.016	
470.30	0.016	
471.20	0.016	
472.10	0.016	
473.00	0.015	
473.90	0.015	
474.80	0.015	
475.70	0.015	
476.60	0.015	
477.40	0.015	
478.30	0.015	
479.20	0.015	
480.10	0.015	
481.00	0.015	
481.90	0.016	
482.80	0.016	
483.70	0.016	
484.60	0.016	
485.50	0.016	
486.30	0.016	
487.20	0.016	
488.10	0.015	
489.00	0.016	
489.90	0.016	
490.80	0.016	
491.70	0.016	
492.60	0.016	
493.50	0.016	
494.40	0.016	
495.20	0.016	
496.10	0.016	
497.00	0.016	
497.90	0.016	
498.80	0.016	
499.70	0.016	
500.60	0.016	
501.50	0.016	
502.40	0.016	
503.20	0.016	
504.10	0.016	
505.00	0.016	
505.90	0.016	
506.80	0.016	
507.70	0.016	
508.60	0.016	
509.50	0.015	
510.40	0.015	
511.30	0.016	
512.20	0.016	
513.00	0.015	
513.80	0.015	
514.60	0.016	
515.50	0.016	
516.30	0.016	
517.10	0.016	
517.90	0.016	
518.80	0.016	
519.60	0.016	
520.40	0.016	
521.20	0.016	
522.10	0.016	
522.90	0.016	
523.70	0.016	
524.50	0.016	
525.40	0.016	
526.20	0.016	
527.00	0.016	
527.80	0.016	
528.70	0.016	
529.50	0.016	
530.30	0.016	
531.10	0.016	
532.00	0.016	
532.80	0.016	
533.60	0.016	
534.50	0.016	
535.30	0.016	
536.10	0.016	
536.90	0.016	
537.80	0.016	
538.60	0.016	
539.40	0.016	
540.20	0.016	
541.10	0.016	
541.90	0.016	
542.70	0.016	
543.50	0.016	
544.40	0.016	
545.20	0.016	
546.00	0.016	
546.80	0.016	
547.70	0.016	
548.50	0.016	
549.30	0.016	
550.10	0.016	
551.00	0.016	
551.80	0.016	
552.60	0.016	
553.50	0.016	
554.30	0.016	
555.10	0.016	
555.90	0.017	
556.80	0.017	
557.60	0.017	
558.40	0.017	
559.20	0.017	
560.10	0.017	
560.90	0.017	
561.70	0.017	
562.50	0.017	
563.40	0.017	
564.20	0.018	
565.00	0.018	
565.80	0.018	
566.70	0.018	
567.50	0.018	
568.30	0.018	
569.10	0.018	
570.00	0.018	
570.80	0.018	
571.60	0.018	
572.40	0.018	
573.30	0.018	
574.10	0.018	
574.90	0.019	
575.80	0.019	
576.60	0.019	
577.40	0.020	
578.20	0.020	
579.10	0.020	
579.90	0.020	
580.70	0.020	
581.50	0.021	
582.40	0.021	
583.20	0.021	
584.00	0.021	
584.80	0.022	
585.70	0.022	
586.50	0.023	
587.30	0.023	
588.10	0.023	
588.90	0.024	
589.60	0.025	
590.40	0.025	
591.10	0.026	
591.90	0.026	
592.60	0.027	
593.40	0.027	
594.10	0.027	
594.90	0.028	
595.60	0.028	
596.40	0.029	
597.10	0.029	
597.90	0.030	
598.60	0.030	
599.40	0.030	
600.10	0.031	
600.90	0.031	
601.60	0.032	
602.40	0.032	
603.10	0.033	
603.90	0.033	
604.60	0.034	
605.40	0.035	
606.10	0.035	
606.90	0.035	
607.70	0.036	
608.40	0.036	
609.20	0.036	
609.90	0.036	
610.70	0.036	
611.40	0.036	
612.20	0.037	
612.90	0.037	
613.70	0.037	
614.40	0.037	
615.20	0.037	
615.90	0.037	
616.70	0.037	
617.40	0.037	
618.20	0.036	
618.90	0.036	
619.70	0.036	
620.40	0.036	
621.20	0.035	
621.90	0.035	
622.70	0.034	
623.40	0.034	
624.20	0.034	
624.90	0.034	
625.70	0.033	
626.40	0.033	
627.20	0.033	
627.90	0.032	
628.70	0.032	
629.40	0.031	
630.20	0.031	
630.90	0.031	
631.70	0.031	
632.40	0.030	
633.20	0.030	
633.90	0.029	
634.70	0.029	
635.40	0.028	
636.20	0.028	
636.90	0.028	
637.70	0.027	
638.40	0.027	
639.20	0.026	
639.90	0.026	
640.70	0.026	
641.40	0.025	
642.20	0.025	
642.90	0.024	
643.70	0.024	
644.50	0.024	
645.20	0.023	
646.00	0.023	
646.70	0.023	
647.50	0.023	
648.20	0.023	
649.00	0.023	
649.70	0.022	
650.50	0.022	
651.20	0.022	
652.00	0.021	
652.70	0.021	
653.50	0.021	
654.20	0.021	
655.00	0.021	
655.70	0.021	
656.50	0.021	
657.20	0.021	
658.00	0.021	
658.70	0.020	
659.50	0.020	
660.20	0.020	
661.00	0.020	
661.70	0.020	
662.50	0.020	
663.20	0.020	
664.00	0.019	
664.70	0.019	
665.50	0.019	
666.20	0.019	
667.00	0.019	
667.80	0.019	
668.50	0.019	
669.30	0.019	
670.00	0.019	
670.80	0.019	
671.60	0.019	
672.30	0.019	
673.10	0.018	
673.90	0.018	
674.60	0.018	
675.40	0.018	
676.20	0.018	
676.90	0.018	
677.70	0.018	
678.50	0.018	
679.20	0.018	
680.00	0.018	
680.70	0.018	
681.50	0.018	
682.30	0.018	
683.00	0.018	
683.80	0.018	
684.60	0.018	
685.30	0.018	
686.10	0.018	
686.90	0.018	
687.60	0.017	
688.40	0.017	
689.20	0.017	
689.90	0.017	
690.70	0.017	
691.50	0.017	
692.20	0.017	
693.00	0.017	
693.70	0.017	
694.50	0.017	
695.30	0.017	
696.00	0.017	
696.80	0.017	
697.60	0.017	
698.30	0.017	
699.10	0.017	
699.90	0.017	
700.60	0.017	
701.40	0.017	
702.20	0.017	
702.90	0.016	
703.70	0.016	
704.50	0.016	
705.20	0.017	
706.00	0.017	
706.80	0.016	
707.50	0.016	
708.30	0.016	
709.10	0.016	
709.90	0.016	
710.70	0.016	
711.50	0.016	
712.20	0.016	
713.00	0.016	
713.80	0.016	
714.60	0.016	
715.40	0.016	
716.20	0.016	
716.90	0.016	
717.70	0.016	
718.50	0.016	
719.30	0.016	
720.10	0.016	
720.90	0.016	
721.60	0.016	
722.40	0.016	
723.20	0.016	
724.00	0.016	
724.80	0.016	
725.60	0.016	
726.30	0.016	
727.10	0.016	
727.90	0.016	
728.70	0.016	
729.50	0.015	
730.30	0.015	
731.00	0.015	
731.80	0.015	
732.60	0.015	
733.40	0.015	
734.20	0.015	
735.00	0.015	
735.70	0.016	
736.50	0.015	
737.30	0.015	
738.10	0.015	
738.90	0.015	
739.70	0.016	
740.40	0.016	
741.20	0.016	
742.00	0.015	
742.80	0.016	
743.60	0.015	
744.40	0.016	
745.10	0.015	
745.90	0.015	
746.70	0.015	
747.50	0.015	
748.30	0.015	
749.10	0.016	
749.80	0.015	
750.60	0.016	
751.40	0.016	
752.20	0.016	
753.00	0.016	
753.80	0.016	
754.50	0.016	
755.30	0.016	
756.10	0.016	
756.90	0.016	
757.70	0.016	
758.50	0.015	
759.30	0.015	
760.00	0.015	
760.80	0.015	
761.60	0.015	
762.40	0.015	
763.20	0.015	
764.00	0.016	
764.70	0.016	
765.50	0.016	
766.30	0.016	
767.10	0.016	
767.90	0.016	
768.70	0.016	
769.40	0.016	
770.20	0.016	
771.00	0.016	
771.80	0.016	
772.60	0.016	
773.40	0.015	
774.10	0.015	
774.90	0.015	
775.70	0.015	
776.50	0.015	
777.30	0.015	
778.10	0.015	
778.80	0.015	
779.60	0.015	
780.40	0.016	
781.20	0.016	
782.00	0.015	
782.80	0.015	
783.50	0.015	
784.30	0.015	
785.10	0.015	
785.90	0.015	
786.70	0.015	
787.50	0.015	
788.20	0.015	
789.00	0.015	
789.80	0.015	
790.60	0.015	
791.40	0.015	
792.20	0.015	
792.90	0.015	
793.70	0.015	
794.50	0.015	
795.30	0.015	
796.10	0.015	
796.90	0.015	
797.60	0.015	
798.40	0.015	
799.20	0.015	
800.00	0.016	
800.80	0.015	
801.60	0.015	
802.30	0.015	
803.10	0.015	
803.90	0.015	
804.70	0.015	
805.50	0.015	
806.30	0.015	
807.10	0.015	
807.80	0.015	
808.60	0.015	
809.40	0.015	
810.20	0.015	
811.00	0.015	
811.80	0.015	
812.50	0.015	
813.30	0.015	
814.10	0.015	
814.90	0.015	
815.70	0.015	
816.50	0.015	
817.20	0.015	
818.00	0.015	
818.80	0.015	
819.60	0.015	
820.40	0.015	
821.20	0.015	
821.90	0.015	
822.70	0.015	
823.50	0.016	
824.30	0.016	
825.10	0.016	
825.90	0.016	
826.60	0.016	
827.40	0.016	
828.20	0.016	
829.00	0.016	
829.80	0.016	
830.60	0.016	
831.30	0.015	
832.20	0.015	
833.00	0.015	
833.80	0.015	
834.60	0.015	
835.50	0.015	
836.30	0.015	
837.10	0.015	
838.00	0.015	
838.80	0.015	
839.60	0.015	
840.50	0.016	
841.30	0.016	
842.10	0.015	
842.90	0.015	
843.80	0.015	
844.60	0.015	
845.40	0.015	
846.30	0.015	
847.10	0.015	
847.90	0.015	
848.80	0.015	
849.60	0.015	
850.40	0.016	
851.30	0.015	
852.10	0.016	
852.90	0.016	
853.70	0.016	
854.60	0.016	
855.40	0.016	
856.20	0.016	
857.10	0.016	
857.90	0.016	
858.70	0.015	
859.60	0.015	
860.40	0.015	
861.20	0.015	
862.10	0.015	
862.90	0.015	
863.70	0.015	
864.50	0.015	
865.40	0.016	
866.20	0.016	
867.00	0.016	
867.90	0.016	
868.70	0.016	
869.50	0.016	
870.40	0.016	
871.20	0.016	
872.00	0.015	
872.80	0.016	
873.70	0.016	
874.50	0.015	
875.30	0.015	
876.20	0.015	
877.00	0.015	
877.80	0.015	
878.70	0.015	
879.50	0.016	
880.30	0.016	
881.20	0.016	
882.00	0.015	
882.80	0.016	
883.60	0.016	
884.50	0.016	
885.30	0.015	
886.10	0.015	
887.00	0.016	
887.80	0.016	
888.60	0.015	
889.50	0.015	
890.30	0.015	
891.10	0.015	
892.00	0.015	
892.80	0.015	
893.60	0.015	
894.40	0.015	
895.30	0.015	
896.10	0.015	
896.90	0.016	
897.80	0.016	
898.60	0.016	
899.40	0.015	
Vernier Format 2
act7_187.txt 6/30/116 15:2:34
Run 17
Wavelength	Intensity	
W	I	
nm	rel	

380.50	0.016	
381.30	0.016	
382.20	0.016	
383.10	0.016	
384.00	0.016	
384.90	0.016	
385.80	0.016	
386.70	0.016	
387.60	0.016	
388.50	0.016	
389.40	0.016	
390.20	0.016	
391.10	0.016	
392.00	0.016	
392.90	0.016	
393.80	0.016	
394.70	0.016	
395.60	0.016	
396.50	0.016	
397.40	0.016	
398.30	0.016	
399.10	0.016	
400.00	0.016	
400.90	0.015	
401.80	0.015	
402.70	0.016	
403.60	0.016	
404.50	0.016	
405.40	0.016	
406.30	0.016	
407.20	0.016	
408.00	0.016	
408.90	0.016	
409.80	0.016	
410.70	0.016	
411.60	0.016	
412.50	0.016	
413.40	0.016	
414.30	0.016	
415.20	0.016	
416.00	0.016	
416.90	0.016	
417.80	0.016	
418.70	0.016	
419.60	0.016	
420.50	0.016	
421.40	0.016	
422.30	0.016	
423.20	0.016	
424.10	0.016	
424.90	0.016	
425.80	0.016	
426.70	0.016	
427.60	0.016	
428.50	0.016	
429.40	0.016	
430.30	0.016	
431.20	0.016	
432.10	0.016	
433.00	0.016	
433.80	0.016	
434.70	0.016	
435.60	0.016	
436.50	0.016	
437.40	0.016	
438.30	0.016	
439.20	0.016	
440.10	0.016	
441.00	0.016	
441.90	0.016	
442.70	0.016	
443.60	0.016	
444.50	0.016	
445.40	0.016	
446.30	0.016	
447.20	0.016	
448.10	0.016	
449.00	0.016	
449.90	0.016	
450.80	0.016	
451.60	0.016	
452.50	0.016	
453.40	0.016	
454.30	0.016	
455.20	0.016	
456.10	0.016	
457.00	0.016	
457.90	0.016	
458.80	0.016	
459.60	0.017	
460.50	0.017	
461.40	0.017	
462.30	0.017	
463.20	0.017	
464.10	0.017	
465.00	0.017	
465.90	0.017	
466.80	0.017	
467.70	0.017	
468.50	0.017	
469.40	0.017	
470.30	0.017	
471.20	0.017	
472.10	0.017	
473.00	0.018	
473.90	0.018	
474.80	0.018	
475.70	0.018	
476.60	0.019	
477.40	0.019	
478.30	0.019	
479.20	0.019	
480.10	0.020	
481.00	0.020	
481.90	0.020	
482.80	0.021	
483.70	0.021	
484.60	0.021	
485.50	0.021	
486.30	0.022	
487.20	0.022	
488.10	0.023	
489.00	0.023	
489.90	0.024	
490.80	0.024	
491.70	0.025	
492.60	0.026	
493.50	0.026	
494.40	0.027	
495.20	0.028	
496.10	0.029	
497.00	0.030	
497.90	0.031	
498.80	0.032	
499.70	0.033	
500.60	0.035	
501.50	0.036	
502.40	0.038	
503.20	0.040	
504.10	0.041	
505.00	0.043	
505.90	0.045	
506.80	0.046	
507.70	0.048	
508.60	0.050	
509.50	0.052	
510.40	0.054	
511.30	0.055	
512.20	0.056	
513.00	0.058	
513.80	0.059	
514.60	0.060	
515.50	0.060	
516.30	0.061	
517.10	0.061	
517.90	0.060	
518.80	0.060	
519.60	0.059	
520.40	0.058	
521.20	0.056	
522.10	0.055	
522.90	0.054	
523.70	0.052	
524.50	0.050	
525.40	0.049	
526.20	0.047	
527.00	0.046	
527.80	0.044	
528.70	0.043	
529.50	0.041	
530.30	0.040	
531.10	0.038	
532.00	0.037	
532.80	0.036	
533.60	0.034	
534.50	0.034	
535.30	0.033	
536.10	0.032	
536.90	0.031	
537.80	0.030	
538.60	0.030	
539.40	0.029	
540.20	0.028	
541.10	0.028	
541.90	0.028	
542.70	0.027	
543.50	0.027	
544.40	0.026	
545.20	0.026	
546.00	0.026	
546.80	0.025	
547.70	0.025	
548.50	0.025	
549.30	0.025	
550.10	0.025	
551.00	0.024	
551.80	0.024	
552.60	0.024	
553.50	0.024	
554.30	0.024	
555.10	0.024	
555.90	0.023	
556.80	0.023	
557.60	0.023	
558.40	0.023	
559.20	0.023	
560.10	0.022	
560.90	0.023	
561.70	0.022	
562.50	0.022	
563.40	0.022	
564.20	0.022	
565.00	0.022	
565.80	0.022	
566.70	0.022	
567.50	0.021	
568.30	0.021	
569.10	0.021	
570.00	0.021	
570.80	0.021	
571.60	0.020	
572.40	0.020	
573.30	0.020	
574.10	0.020	
574.90	0.020	
575.80	0.020	
576.60	0.020	
577.40	0.020	
578.20	0.020	
579.10	0.020	
579.90	0.019	
580.70	0.019	
581.50	0.019	
582.40	0.019	
583.20	0.019	
584.00	0.018	
584.80	0.018	
585.70	0.018	
586.50	0.018	
587.30	0.018	
588.10	0.018	
588.90	0.018	
589.60	0.018	
590.40	0.018	
591.10	0.018	
591.90	0.017	
592.60	0.017	
593.40	0.017	
594.10	0.017	
594.90	0.017	
595.60	0.017	
596.40	0.017	
597.10	0.017	
597.90	0.017	
598.60	0.017	
599.40	0.017	
600.10	0.017	
600.90	0.017	
601.60	0.017	
602.40	0.017	
603.10	0.017	
603.90	0.017	
604.60	0.017	
605.40	0.017	
606.10	0.017	
606.90	0.017	
607.70	0.017	
608.40	0.017	
609.20	0.017	
609.90	0.017	
610.70	0.017	
611.40	0.016	
612.20	0.016	
612.90	0.016	
613.70	0.016	
614.40	0.016	
615.20	0.016	
615.90	0.016	
616.70	0.016	
617.40	0.016	
618.20	0.016	
618.90	0.016	
619.70	0.016	
620.40	0.016	
621.20	0.016	
621.90	0.016	
622.70	0.016	
623.40	0.016	
624.20	0.016	
624.90	0.016	
625.70	0.016	
626.40	0.016	
627.20	0.015	
627.90	0.016	
628.70	0.016	
629.40	0.016	
630.20	0.016	
630.90	0.016	
631.70	0.016	
632.40	0.016	
633.20	0.016	
633.90	0.016	
634.70	0.016	
635.40	0.016	
636.20	0.016	
636.90	0.015	
637.70	0.015	
638.40	0.015	
639.20	0.015	
639.90	0.015	
640.70	0.016	
641.40	0.016	
642.20	0.015	
642.90	0.015	
643.70	0.015	
644.50	0.015	
645.20	0.015	
646.00	0.015	
646.70	0.015	
647.50	0.015	
648.20	0.015	
649.00	0.016	
649.70	0.016	
650.50	0.016	
651.20	0.016	
652.00	0.016	
652.70	0.016	
653.50	0.015	
654.20	0.015	
655.00	0.015	
655.70	0.015	
656.50	0.015	
657.20	0.015	
658.00	0.015	
658.70	0.015	
659.50	0.015	
660.20	0.015	
661.00	0.015	
661.70	0.015	
662.50	0.015	
663.20	0.015	
664.00	0.016	
664.70	0.016	
665.50	0.015	
666.20	0.015	
667.00	0.015	
667.80	0.015	
668.50	0.016	
669.30	0.015	
670.00	0.015	
670.80	0.015	
671.60	0.015	
672.30	0.015	
673.10	0.015	
673.90	0.015	
674.60	0.015	
675.40	0.015	
676.20	0.015	
676.90	0.015	
677.70	0.015	
678.50	0.015	
679.20	0.015	
680.00	0.015	
680.70	0.015	
681.50	0.015	
682.30	0.015	
683.00	0.015	
683.80	0.015	
684.60	0.015	
685.30	0.016	
686.10	0.015	
686.90	0.015	
687.60	0.015	
688.40	0.015	
689.20	0.015	
689.90	0.015	
690.70	0.015	
691.50	0.015	
692.20	0.015	
693.00	0.015	
693.70	0.015	
694.50	0.015	
695.30	0.015	
696.00	0.015	
696.80	0.015	
697.60	0.015	
698.30	0.015	
699.10	0.015	
699.90	0.015	
700.60	0.015	
701.40	0.015	
702.20	0.015	
702.90	0.015	
703.70	0.015	
704.50	0.015	
705.20	0.015	
706.00	0.015	
706.80	0.015	
707.50	0.015	
708.30	0.015	
709.10	0.015	
709.90	0.015	
710.70	0.015	
711.50	0.015	
712.20	0.015	
713.00	0.015	
713.80	0.015	
714.60	0.015	
715.40	0.015	
716.20	0.015	
716.90	0.015	
717.70	0.015	
718.50	0.015	
719.30	0.015	
720.10	0.015	
720.90	0.015	
721.60	0.015	
722.40	0.015	
723.20	0.015	
724.00	0.015	
724.80	0.015	
725.60	0.016	
726.30	0.016	
727.10	0.016	
727.90	0.016	
728.70	0.016	
729.50	0.016	
730.30	0.016	
731.00	0.016	
731.80	0.016	
732.60	0.015	
733.40	0.015	
734.20	0.015	
735.00	0.015	
735.70	0.015	
736.50	0.015	
737.30	0.015	
738.10	0.015	
738.90	0.015	
739.70	0.015	
740.40	0.015	
741.20	0.015	
742.00	0.015	
742.80	0.015	
743.60	0.015	
744.40	0.015	
745.10	0.015	
745.90	0.015	
746.70	0.015	
747.50	0.016	
748.30	0.015	
749.10	0.015	
749.80	0.015	
750.60	0.015	
751.40	0.015	
752.20	0.015	
753.00	0.015	
753.80	0.015	
754.50	0.015	
755.30	0.015	
756.10	0.015	
756.90	0.015	
757.70	0.015	
758.50	0.015	
759.30	0.015	
760.00	0.015	
760.80	0.015	
761.60	0.015	
762.40	0.015	
763.20	0.015	
764.00	0.015	
764.70	0.015	
765.50	0.015	
766.30	0.015	
767.10	0.015	
767.90	0.015	
768.70	0.015	
769.40	0.015	
770.20	0.015	
771.00	0.015	
771.80	0.015	
772.60	0.015	
773.40	0.015	
774.10	0.015	
774.90	0.015	
775.70	0.015	
776.50	0.015	
777.30	0.015	
778.10	0.015	
778.80	0.015	
779.60	0.015	
780.40	0.015	
781.20	0.015	
782.00	0.015	
782.80	0.015	
783.50	0.015	
784.30	0.015	
785.10	0.015	
785.90	0.015	
786.70	0.015	
787.50	0.015	
788.20	0.015	
789.00	0.015	
789.80	0.015	
790.60	0.015	
791.40	0.015	
792.20	0.015	
792.90	0.015	
793.70	0.015	
794.50	0.015	
795.30	0.015	
796.10	0.015	
796.90	0.015	
797.60	0.015	
798.40	0.015	
799.20	0.015	
800.00	0.015	
800.80	0.015	
801.60	0.015	
802.30	0.015	
803.10	0.015	
803.90	0.015	
804.70	0.015	
805.50	0.015	
806.30	0.015	
807.10	0.015	
807.80	0.016	
808.60	0.016	
809.40	0.015	
810.20	0.016	
811.00	0.015	
811.80	0.016	
812.50	0.016	
813.30	0.016	
814.10	0.016	
814.90	0.016	
815.70	0.015	
816.50	0.015	
817.20	0.015	
818.00	0.015	
818.80	0.015	
819.60	0.015	
820.40	0.015	
821.20	0.015	
821.90	0.015	
822.70	0.015	
823.50	0.016	
824.30	0.016	
825.10	0.016	
825.90	0.016	
826.60	0.016	
827.40	0.016	
828.20	0.016	
829.00	0.015	
829.80	0.015	
830.60	0.015	
831.30	0.015	
832.20	0.015	
833.00	0.015	
833.80	0.015	
834.60	0.015	
835.50	0.015	
836.30	0.015	
837.10	0.015	
838.00	0.015	
838.80	0.015	
839.60	0.015	
840.50	0.015	
841.30	0.015	
842.10	0.015	
842.90	0.015	
843.80	0.015	
844.60	0.015	
845.40	0.015	
846.30	0.015	
847.10	0.015	
847.90	0.015	
848.80	0.015	
849.60	0.015	
850.40	0.015	
851.30	0.015	
852.10	0.015	
852.90	0.015	
853.70	0.016	
854.60	0.016	
855.40	0.016	
856.20	0.015	
857.10	0.015	
857.90	0.015	
858.70	0.015	
859.60	0.015	
860.40	0.015	
861.20	0.015	
862.10	0.015	
862.90	0.015	
863.70	0.015	
864.50	0.015	
865.40	0.015	
866.20	0.015	
867.00	0.015	
867.90	0.015	
868.70	0.015	
869.50	0.015	
870.40	0.015	
871.20	0.015	
872.00	0.015	
872.80	0.015	
873.70	0.015	
874.50	0.015	
875.30	0.015	
876.20	0.015	
877.00	0.015	
877.80	0.015	
878.70	0.015	
879.50	0.015	
880.30	0.015	
881.20	0.015	
882.00	0.015	
882.80	0.015	
883.60	0.015	
884.50	0.015	
885.30	0.015	
886.10	0.015	
887.00	0.015	
887.80	0.015	
888.60	0.015	
889.50	0.015	
890.30	0.015	
891.10	0.015	
892.00	0.015	
892.80	0.015	
893.60	0.015	
894.40	0.015	
895.30	0.015	
896.10	0.015	
896.90	0.015	
897.80	0.015	
898.60	0.015	
899.40	0.015	
Vernier Format 2
act7_187.txt 6/30/116 15:2:34
Run 18
Wavelength	Intensity	
W	I	
nm	rel	

380.50	0.016	
381.30	0.016	
382.20	0.016	
383.10	0.016	
384.00	0.016	
384.90	0.016	
385.80	0.016	
386.70	0.016	
387.60	0.016	
388.50	0.016	
389.40	0.016	
390.20	0.016	
391.10	0.016	
392.00	0.016	
392.90	0.016	
393.80	0.016	
394.70	0.016	
395.60	0.016	
396.50	0.016	
397.40	0.016	
398.30	0.016	
399.10	0.016	
400.00	0.016	
400.90	0.016	
401.80	0.016	
402.70	0.016	
403.60	0.016	
404.50	0.016	
405.40	0.016	
406.30	0.016	
407.20	0.016	
408.00	0.016	
408.90	0.017	
409.80	0.017	
410.70	0.017	
411.60	0.017	
412.50	0.017	
413.40	0.018	
414.30	0.018	
415.20	0.018	
416.00	0.018	
416.90	0.018	
417.80	0.019	
418.70	0.019	
419.60	0.019	
420.50	0.020	
421.40	0.020	
422.30	0.020	
423.20	0.021	
424.10	0.021	
424.90	0.021	
425.80	0.022	
426.70	0.022	
427.60	0.022	
428.50	0.023	
429.40	0.023	
430.30	0.024	
431.20	0.024	
432.10	0.024	
433.00	0.024	
433.80	0.025	
434.70	0.025	
435.60	0.026	
436.50	0.026	
437.40	0.026	
438.30	0.027	
439.20	0.027	
440.10	0.027	
441.00	0.028	
441.90	0.028	
442.70	0.029	
443.60	0.029	
444.50	0.030	
445.40	0.030	
446.30	0.030	
447.20	0.030	
448.10	0.030	
449.00	0.031	
449.90	0.031	
450.80	0.030	
451.60	0.030	
452.50	0.030	
453.40	0.029	
454.30	0.029	
455.20	0.028	
456.10	0.027	
457.00	0.027	
457.90	0.026	
458.80	0.025	
459.60	0.025	
460.50	0.024	
461.40	0.024	
462.30	0.024	
463.20	0.023	
464.10	0.023	
465.00	0.023	
465.90	0.023	
466.80	0.023	
467.70	0.022	
468.50	0.022	
469.40	0.022	
470.30	0.022	
471.20	0.022	
472.10	0.021	
473.00	0.021	
473.90	0.021	
474.80	0.021	
475.70	0.021	
476.60	0.021	
477.40	0.020	
478.30	0.020	
479.20	0.020	
480.10	0.020	
481.00	0.019	
481.90	0.019	
482.80	0.019	
483.70	0.019	
484.60	0.019	
485.50	0.019	
486.30	0.019	
487.20	0.018	
488.10	0.018	
489.00	0.018	
489.90	0.018	
490.80	0.018	
491.70	0.018	
492.60	0.018	
493.50	0.018	
494.40	0.018	
495.20	0.018	
496.10	0.018	
497.00	0.018	
497.90	0.018	
498.80	0.018	
499.70	0.018	
500.60	0.017	
501.50	0.017	
502.40	0.017	
503.20	0.017	
504.10	0.016	
505.00	0.016	
505.90	0.016	
506.80	0.016	
507.70	0.016	
508.60	0.016	
509.50	0.016	
510.40	0.016	
511.30	0.016	
512.20	0.016	
513.00	0.016	
513.80	0.016	
514.60	0.016	
515.50	0.016	
516.30	0.016	
517.10	0.016	
517.90	0.016	
518.80	0.016	
519.60	0.016	
520.40	0.016	
521.20	0.016	
522.10	0.016	
522.90	0.016	
523.70	0.016	
524.50	0.016	
525.40	0.016	
526.20	0.016	
527.00	0.016	
527.80	0.016	
528.70	0.016	
529.50	0.016	
530.30	0.016	
531.10	0.016	
532.00	0.016	
532.80	0.016	
533.60	0.016	
534.50	0.016	
535.30	0.016	
536.10	0.015	
536.90	0.015	
537.80	0.015	
538.60	0.016	
539.40	0.016	
540.20	0.016	
541.10	0.016	
541.90	0.016	
542.70	0.016	
543.50	0.016	
544.40	0.015	
545.20	0.015	
546.00	0.015	
546.80	0.015	
547.70	0.015	
548.50	0.015	
549.30	0.015	
550.10	0.015	
551.00	0.015	
551.80	0.015	
552.60	0.015	
553.50	0.015	
554.30	0.015	
555.10	0.015	
555.90	0.015	
556.80	0.015	
557.60	0.015	
558.40	0.015	
559.20	0.015	
560.10	0.015	
560.90	0.015	
561.70	0.015	
562.50	0.015	
563.40	0.015	
564.20	0.015	
565.00	0.015	
565.80	0.015	
566.70	0.015	
567.50	0.015	
568.30	0.015	
569.10	0.015	
570.00	0.015	
570.80	0.015	
571.60	0.015	
572.40	0.015	
573.30	0.015	
574.10	0.015	
574.90	0.015	
575.80	0.015	
576.60	0.015	
577.40	0.015	
578.20	0.015	
579.10	0.015	
579.90	0.015	
580.70	0.015	
581.50	0.016	
582.40	0.016	
583.20	0.015	
584.00	0.015	
584.80	0.016	
585.70	0.016	
586.50	0.016	
587.30	0.015	
588.10	0.015	
588.90	0.015	
589.60	0.015	
590.40	0.015	
591.10	0.015	
591.90	0.015	
592.60	0.015	
593.40	0.015	
594.10	0.015	
594.90	0.015	
595.60	0.015	
596.40	0.015	
597.10	0.015	
597.90	0.015	
598.60	0.015	
599.40	0.015	
600.10	0.015	
600.90	0.015	
601.60	0.015	
602.40	0.015	
603.10	0.016	
603.90	0.016	
604.60	0.015	
605.40	0.015	
606.10	0.015	
606.90	0.015	
607.70	0.015	
608.40	0.015	
609.20	0.015	
609.90	0.015	
610.70	0.015	
611.40	0.015	
612.20	0.015	
612.90	0.015	
613.70	0.015	
614.40	0.015	
615.20	0.015	
615.90	0.015	
616.70	0.015	
617.40	0.015	
618.20	0.015	
618.90	0.015	
619.70	0.015	
620.40	0.015	
621.20	0.015	
621.90	0.015	
622.70	0.015	
623.40	0.015	
624.20	0.015	
624.90	0.015	
625.70	0.015	
626.40	0.015	
627.20	0.015	
627.90	0.015	
628.70	0.015	
629.40	0.015	
630.20	0.015	
630.90	0.015	
631.70	0.015	
632.40	0.015	
633.20	0.015	
633.90	0.015	
634.70	0.015	
635.40	0.015	
636.20	0.015	
636.90	0.015	
637.70	0.015	
638.40	0.015	
639.20	0.015	
639.90	0.015	
640.70	0.015	
641.40	0.015	
642.20	0.015	
642.90	0.016	
643.70	0.015	
644.50	0.015	
645.20	0.015	
646.00	0.015	
646.70	0.015	
647.50	0.015	
648.20	0.015	
649.00	0.015	
649.70	0.015	
650.50	0.015	
651.20	0.015	
652.00	0.015	
652.70	0.015	
653.50	0.015	
654.20	0.015	
655.00	0.015	
655.70	0.015	
656.50	0.015	
657.20	0.015	
658.00	0.015	
658.70	0.015	
659.50	0.015	
660.20	0.015	
661.00	0.015	
661.70	0.015	
662.50	0.015	
663.20	0.015	
664.00	0.015	
664.70	0.015	
665.50	0.015	
666.20	0.015	
667.00	0.015	
667.80	0.015	
668.50	0.015	
669.30	0.015	
670.00	0.015	
670.80	0.015	
671.60	0.015	
672.30	0.015	
673.10	0.015	
673.90	0.015	
674.60	0.015	
675.40	0.015	
676.20	0.015	
676.90	0.015	
677.70	0.015	
678.50	0.015	
679.20	0.015	
680.00	0.015	
680.70	0.015	
681.50	0.015	
682.30	0.015	
683.00	0.015	
683.80	0.015	
684.60	0.015	
685.30	0.015	
686.10	0.015	
686.90	0.015	
687.60	0.015	
688.40	0.015	
689.20	0.015	
689.90	0.015	
690.70	0.015	
691.50	0.015	
692.20	0.015	
693.00	0.015	
693.70	0.015	
694.50	0.015	
695.30	0.015	
696.00	0.015	
696.80	0.015	
697.60	0.015	
698.30	0.015	
699.10	0.015	
699.90	0.015	
700.60	0.015	
701.40	0.015	
702.20	0.015	
702.90	0.015	
703.70	0.015	
704.50	0.015	
705.20	0.015	
706.00	0.015	
706.80	0.015	
707.50	0.015	
708.30	0.015	
709.10	0.015	
709.90	0.015	
710.70	0.015	
711.50	0.015	
712.20	0.015	
713.00	0.015	
713.80	0.015	
714.60	0.015	
715.40	0.015	
716.20	0.015	
716.90	0.015	
717.70	0.015	
718.50	0.015	
719.30	0.015	
720.10	0.015	
720.90	0.015	
721.60	0.015	
722.40	0.015	
723.20	0.015	
724.00	0.015	
724.80	0.015	
725.60	0.015	
726.30	0.015	
727.10	0.015	
727.90	0.015	
728.70	0.015	
729.50	0.015	
730.30	0.015	
731.00	0.015	
731.80	0.015	
732.60	0.015	
733.40	0.015	
734.20	0.015	
735.00	0.015	
735.70	0.015	
736.50	0.015	
737.30	0.015	
738.10	0.015	
738.90	0.015	
739.70	0.015	
740.40	0.015	
741.20	0.015	
742.00	0.015	
742.80	0.015	
743.60	0.015	
744.40	0.015	
745.10	0.015	
745.90	0.015	
746.70	0.015	
747.50	0.015	
748.30	0.015	
749.10	0.015	
749.80	0.015	
750.60	0.015	
751.40	0.015	
752.20	0.015	
753.00	0.015	
753.80	0.015	
754.50	0.015	
755.30	0.015	
756.10	0.015	
756.90	0.015	
757.70	0.015	
758.50	0.015	
759.30	0.015	
760.00	0.015	
760.80	0.015	
761.60	0.015	
762.40	0.015	
763.20	0.015	
764.00	0.015	
764.70	0.015	
765.50	0.015	
766.30	0.015	
767.10	0.015	
767.90	0.015	
768.70	0.015	
769.40	0.015	
770.20	0.015	
771.00	0.015	
771.80	0.015	
772.60	0.015	
773.40	0.015	
774.10	0.015	
774.90	0.015	
775.70	0.015	
776.50	0.015	
777.30	0.015	
778.10	0.015	
778.80	0.015	
779.60	0.015	
780.40	0.015	
781.20	0.015	
782.00	0.015	
782.80	0.015	
783.50	0.015	
784.30	0.015	
785.10	0.015	
785.90	0.015	
786.70	0.015	
787.50	0.015	
788.20	0.015	
789.00	0.015	
789.80	0.015	
790.60	0.015	
791.40	0.015	
792.20	0.015	
792.90	0.015	
793.70	0.015	
794.50	0.015	
795.30	0.015	
796.10	0.015	
796.90	0.016	
797.60	0.015	
798.40	0.015	
799.20	0.015	
800.00	0.015	
800.80	0.015	
801.60	0.015	
802.30	0.015	
803.10	0.015	
803.90	0.015	
804.70	0.015	
805.50	0.015	
806.30	0.015	
807.10	0.015	
807.80	0.015	
808.60	0.015	
809.40	0.015	
810.20	0.015	
811.00	0.015	
811.80	0.015	
812.50	0.015	
813.30	0.016	
814.10	0.016	
814.90	0.015	
815.70	0.015	
816.50	0.015	
817.20	0.015	
818.00	0.015	
818.80	0.015	
819.60	0.015	
820.40	0.015	
821.20	0.015	
821.90	0.015	
822.70	0.015	
823.50	0.016	
824.30	0.016	
825.10	0.016	
825.90	0.016	
826.60	0.016	
827.40	0.016	
828.20	0.016	
829.00	0.015	
829.80	0.015	
830.60	0.015	
831.30	0.015	
832.20	0.015	
833.00	0.015	
833.80	0.015	
834.60	0.015	
835.50	0.015	
836.30	0.015	
837.10	0.015	
838.00	0.015	
838.80	0.015	
839.60	0.015	
840.50	0.015	
841.30	0.015	
842.10	0.015	
842.90	0.015	
843.80	0.015	
844.60	0.015	
845.40	0.015	
846.30	0.015	
847.10	0.015	
847.90	0.015	
848.80	0.015	
849.60	0.015	
850.40	0.015	
851.30	0.015	
852.10	0.015	
852.90	0.015	
853.70	0.015	
854.60	0.015	
855.40	0.015	
856.20	0.015	
857.10	0.015	
857.90	0.015	
858.70	0.015	
859.60	0.015	
860.40	0.015	
861.20	0.015	
862.10	0.015	
862.90	0.015	
863.70	0.015	
864.50	0.015	
865.40	0.015	
866.20	0.015	
867.00	0.015	
867.90	0.015	
868.70	0.015	
869.50	0.015	
870.40	0.015	
871.20	0.015	
872.00	0.015	
872.80	0.015	
873.70	0.015	
874.50	0.015	
875.30	0.015	
876.20	0.015	
877.00	0.015	
877.80	0.015	
878.70	0.015	
879.50	0.015	
880.30	0.015	
881.20	0.015	
882.00	0.015	
882.80	0.015	
883.60	0.015	
884.50	0.015	
885.30	0.015	
886.10	0.015	
887.00	0.015	
887.80	0.015	
888.60	0.015	
889.50	0.015	
890.30	0.015	
891.10	0.015	
892.00	0.015	
892.80	0.015	
893.60	0.015	
894.40	0.015	
895.30	0.015	
896.10	0.015	
896.90	0.015	
897.80	0.015	
898.60	0.015	
899.40	0.015	
Vernier Format 2
act7_187.txt 6/30/116 15:2:34
Run 19
Wavelength	Intensity	
W	I	
nm	rel	

380.50	0.015	
381.30	0.015	
382.20	0.015	
383.10	0.015	
384.00	0.015	
384.90	0.015	
385.80	0.015	
386.70	0.015	
387.60	0.015	
388.50	0.015	
389.40	0.015	
390.20	0.015	
391.10	0.015	
392.00	0.015	
392.90	0.015	
393.80	0.015	
394.70	0.015	
395.60	0.015	
396.50	0.015	
397.40	0.015	
398.30	0.015	
399.10	0.015	
400.00	0.015	
400.90	0.016	
401.80	0.016	
402.70	0.016	
403.60	0.016	
404.50	0.016	
405.40	0.016	
406.30	0.016	
407.20	0.016	
408.00	0.016	
408.90	0.016	
409.80	0.016	
410.70	0.016	
411.60	0.016	
412.50	0.016	
413.40	0.016	
414.30	0.016	
415.20	0.015	
416.00	0.016	
416.90	0.016	
417.80	0.016	
418.70	0.016	
419.60	0.015	
420.50	0.016	
421.40	0.016	
422.30	0.016	
423.20	0.016	
424.10	0.016	
424.90	0.016	
425.80	0.016	
426.70	0.016	
427.60	0.016	
428.50	0.016	
429.40	0.016	
430.30	0.016	
431.20	0.016	
432.10	0.016	
433.00	0.016	
433.80	0.016	
434.70	0.016	
435.60	0.016	
436.50	0.016	
437.40	0.016	
438.30	0.016	
439.20	0.016	
440.10	0.016	
441.00	0.016	
441.90	0.016	
442.70	0.016	
443.60	0.016	
444.50	0.016	
445.40	0.016	
446.30	0.016	
447.20	0.016	
448.10	0.016	
449.00	0.016	
449.90	0.016	
450.80	0.016	
451.60	0.016	
452.50	0.016	
453.40	0.016	
454.30	0.016	
455.20	0.016	
456.10	0.015	
457.00	0.016	
457.90	0.016	
458.80	0.016	
459.60	0.016	
460.50	0.016	
461.40	0.016	
462.30	0.016	
463.20	0.016	
464.10	0.015	
465.00	0.015	
465.90	0.015	
466.80	0.015	
467.70	0.015	
468.50	0.015	
469.40	0.015	
470.30	0.016	
471.20	0.016	
472.10	0.016	
473.00	0.016	
473.90	0.016	
474.80	0.016	
475.70	0.016	
476.60	0.016	
477.40	0.016	
478.30	0.016	
479.20	0.016	
480.10	0.016	
481.00	0.016	
481.90	0.016	
482.80	0.016	
483.70	0.016	
484.60	0.015	
485.50	0.015	
486.30	0.015	
487.20	0.015	
488.10	0.015	
489.00	0.015	
489.90	0.015	
490.80	0.015	
491.70	0.015	
492.60	0.016	
493.50	0.015	
494.40	0.015	
495.20	0.016	
496.10	0.016	
497.00	0.016	
497.90	0.016	
498.80	0.015	
499.70	0.015	
500.60	0.015	
501.50	0.015	
502.40	0.016	
503.20	0.016	
504.10	0.016	
505.00	0.016	
505.90	0.016	
506.80	0.016	
507.70	0.016	
508.60	0.016	
509.50	0.015	
510.40	0.015	
511.30	0.015	
512.20	0.015	
513.00	0.015	
513.80	0.015	
514.60	0.016	
515.50	0.016	
516.30	0.016	
517.10	0.016	
517.90	0.016	
518.80	0.016	
519.60	0.016	
520.40	0.016	
521.20	0.016	
522.10	0.016	
522.90	0.016	
523.70	0.016	
524.50	0.016	
525.40	0.016	
526.20	0.016	
527.00	0.016	
527.80	0.016	
528.70	0.016	
529.50	0.016	
530.30	0.016	
531.10	0.016	
532.00	0.016	
532.80	0.016	
533.60	0.016	
534.50	0.016	
535.30	0.016	
536.10	0.016	
536.90	0.016	
537.80	0.016	
538.60	0.016	
539.40	0.016	
540.20	0.016	
541.10	0.016	
541.90	0.016	
542.70	0.016	
543.50	0.016	
544.40	0.016	
545.20	0.016	
546.00	0.016	
546.80	0.016	
547.70	0.016	
548.50	0.016	
549.30	0.016	
550.10	0.016	
551.00	0.016	
551.80	0.016	
552.60	0.016	
553.50	0.016	
554.30	0.016	
555.10	0.016	
555.90	0.016	
556.80	0.016	
557.60	0.016	
558.40	0.016	
559.20	0.016	
560.10	0.016	
560.90	0.016	
561.70	0.016	
562.50	0.016	
563.40	0.016	
564.20	0.016	
565.00	0.016	
565.80	0.016	
566.70	0.016	
567.50	0.017	
568.30	0.017	
569.10	0.017	
570.00	0.017	
570.80	0.017	
571.60	0.017	
572.40	0.017	
573.30	0.018	
574.10	0.018	
574.90	0.018	
575.80	0.018	
576.60	0.019	
577.40	0.019	
578.20	0.019	
579.10	0.020	
579.90	0.020	
580.70	0.020	
581.50	0.021	
582.40	0.021	
583.20	0.022	
584.00	0.022	
584.80	0.022	
585.70	0.023	
586.50	0.024	
587.30	0.024	
588.10	0.025	
588.90	0.025	
589.60	0.026	
590.40	0.027	
591.10	0.027	
591.90	0.028	
592.60	0.028	
593.40	0.029	
594.10	0.029	
594.90	0.029	
595.60	0.030	
596.40	0.030	
597.10	0.030	
597.90	0.031	
598.60	0.031	
599.40	0.032	
600.10	0.032	
600.90	0.032	
601.60	0.031	
602.40	0.031	
603.10	0.031	
603.90	0.031	
604.60	0.031	
605.40	0.031	
606.10	0.031	
606.90	0.032	
607.70	0.031	
608.40	0.031	
609.20	0.031	
609.90	0.031	
610.70	0.031	
611.40	0.031	
612.20	0.031	
612.90	0.030	
613.70	0.030	
614.40	0.030	
615.20	0.030	
615.90	0.030	
616.70	0.030	
617.40	0.030	
618.20	0.030	
618.90	0.030	
619.70	0.030	
620.40	0.030	
621.20	0.030	
621.90	0.030	
622.70	0.029	
623.40	0.029	
624.20	0.029	
624.90	0.029	
625.70	0.029	
626.40	0.029	
627.20	0.029	
627.90	0.029	
628.70	0.029	
629.40	0.029	
630.20	0.030	
630.90	0.030	
631.70	0.029	
632.40	0.029	
633.20	0.029	
633.90	0.029	
634.70	0.028	
635.40	0.027	
636.20	0.027	
636.90	0.027	
637.70	0.027	
638.40	0.026	
639.20	0.026	
639.90	0.026	
640.70	0.026	
641.40	0.025	
642.20	0.025	
642.90	0.025	
643.70	0.025	
644.50	0.025	
645.20	0.024	
646.00	0.024	
646.70	0.024	
647.50	0.023	
648.20	0.023	
649.00	0.023	
649.70	0.023	
650.50	0.023	
651.20	0.023	
652.00	0.022	
652.70	0.022	
653.50	0.022	
654.20	0.022	
655.00	0.022	
655.70	0.022	
656.50	0.022	
657.20	0.022	
658.00	0.021	
658.70	0.021	
659.50	0.021	
660.20	0.021	
661.00	0.020	
661.70	0.020	
662.50	0.020	
663.20	0.020	
664.00	0.020	
664.70	0.020	
665.50	0.020	
666.20	0.020	
667.00	0.019	
667.80	0.020	
668.50	0.020	
669.30	0.020	
670.00	0.020	
670.80	0.020	
671.60	0.020	
672.30	0.020	
673.10	0.019	
673.90	0.019	
674.60	0.019	
675.40	0.019	
676.20	0.019	
676.90	0.019	
677.70	0.019	
678.50	0.019	
679.20	0.019	
680.00	0.019	
680.70	0.019	
681.50	0.019	
682.30	0.019	
683.00	0.019	
683.80	0.019	
684.60	0.019	
685.30	0.019	
686.10	0.019	
686.90	0.019	
687.60	0.018	
688.40	0.018	
689.20	0.018	
689.90	0.018	
690.70	0.018	
691.50	0.018	
692.20	0.018	
693.00	0.018	
693.70	0.018	
694.50	0.018	
695.30	0.018	
696.00	0.018	
696.80	0.018	
697.60	0.018	
698.30	0.018	
699.10	0.018	
699.90	0.018	
700.60	0.018	
701.40	0.018	
702.20	0.018	
702.90	0.018	
703.70	0.018	
704.50	0.018	
705.20	0.018	
706.00	0.018	
706.80	0.018	
707.50	0.018	
708.30	0.017	
709.10	0.017	
709.90	0.017	
710.70	0.017	
711.50	0.017	
712.20	0.017	
713.00	0.017	
713.80	0.017	
714.60	0.017	
715.40	0.017	
716.20	0.017	
716.90	0.017	
717.70	0.017	
718.50	0.016	
719.30	0.016	
720.10	0.016	
720.90	0.016	
721.60	0.016	
722.40	0.016	
723.20	0.016	
724.00	0.016	
724.80	0.016	
725.60	0.016	
726.30	0.016	
727.10	0.016	
727.90	0.016	
728.70	0.016	
729.50	0.016	
730.30	0.016	
731.00	0.016	
731.80	0.016	
732.60	0.016	
733.40	0.016	
734.20	0.016	
735.00	0.016	
735.70	0.016	
736.50	0.016	
737.30	0.016	
738.10	0.016	
738.90	0.016	
739.70	0.016	
740.40	0.016	
741.20	0.016	
742.00	0.016	
742.80	0.016	
743.60	0.016	
744.40	0.016	
745.10	0.016	
745.90	0.016	
746.70	0.016	
747.50	0.016	
748.30	0.016	
749.10	0.016	
749.80	0.016	
750.60	0.016	
751.40	0.016	
752.20	0.016	
753.00	0.016	
753.80	0.016	
754.50	0.015	
755.30	0.016	
756.10	0.016	
756.90	0.016	
757.70	0.016	
758.50	0.016	
759.30	0.016	
760.00	0.016	
760.80	0.016	
761.60	0.016	
762.40	0.016	
763.20	0.016	
764.00	0.016	
764.70	0.016	
765.50	0.016	
766.30	0.016	
767.10	0.016	
767.90	0.016	
768.70	0.016	
769.40	0.016	
770.20	0.016	
771.00	0.016	
771.80	0.016	
772.60	0.016	
773.40	0.015	
774.10	0.015	
774.90	0.015	
775.70	0.015	
776.50	0.015	
777.30	0.015	
778.10	0.015	
778.80	0.015	
779.60	0.016	
780.40	0.016	
781.20	0.016	
782.00	0.015	
782.80	0.015	
783.50	0.015	
784.30	0.015	
785.10	0.015	
785.90	0.015	
786.70	0.015	
787.50	0.015	
788.20	0.015	
789.00	0.015	
789.80	0.015	
790.60	0.015	
791.40	0.015	
792.20	0.016	
792.90	0.016	
793.70	0.016	
794.50	0.016	
795.30	0.016	
796.10	0.016	
796.90	0.016	
797.60	0.016	
798.40	0.015	
799.20	0.015	
800.00	0.016	
800.80	0.015	
801.60	0.015	
802.30	0.015	
803.10	0.015	
803.90	0.015	
804.70	0.016	
805.50	0.015	
806.30	0.015	
807.10	0.015	
807.80	0.015	
808.60	0.015	
809.40	0.015	
810.20	0.015	
811.00	0.015	
811.80	0.015	
812.50	0.015	
813.30	0.015	
814.10	0.015	
814.90	0.015	
815.70	0.015	
816.50	0.015	
817.20	0.015	
818.00	0.015	
818.80	0.015	
819.60	0.015	
820.40	0.015	
821.20	0.015	
821.90	0.015	
822.70	0.015	
823.50	0.016	
824.30	0.016	
825.10	0.016	
825.90	0.016	
826.60	0.016	
827.40	0.016	
828.20	0.016	
829.00	0.015	
829.80	0.015	
830.60	0.015	
831.30	0.015	
832.20	0.015	
833.00	0.015	
833.80	0.015	
834.60	0.015	
835.50	0.015	
836.30	0.015	
837.10	0.015	
838.00	0.015	
838.80	0.015	
839.60	0.015	
840.50	0.015	
841.30	0.015	
842.10	0.015	
842.90	0.015	
843.80	0.015	
844.60	0.015	
845.40	0.015	
846.30	0.015	
847.10	0.015	
847.90	0.015	
848.80	0.015	
849.60	0.015	
850.40	0.015	
851.30	0.015	
852.10	0.015	
852.90	0.015	
853.70	0.015	
854.60	0.015	
855.40	0.015	
856.20	0.015	
857.10	0.015	
857.90	0.015	
858.70	0.015	
859.60	0.015	
860.40	0.015	
861.20	0.015	
862.10	0.015	
862.90	0.015	
863.70	0.015	
864.50	0.015	
865.40	0.016	
866.20	0.016	
867.00	0.015	
867.90	0.015	
868.70	0.016	
869.50	0.015	
870.40	0.015	
871.20	0.015	
872.00	0.015	
872.80	0.015	
873.70	0.015	
874.50	0.015	
875.30	0.015	
876.20	0.015	
877.00	0.015	
877.80	0.015	
878.70	0.015	
879.50	0.015	
880.30	0.015	
881.20	0.015	
882.00	0.015	
882.80	0.015	
883.60	0.015	
884.50	0.015	
885.30	0.015	
886.10	0.015	
887.00	0.015	
887.80	0.015	
888.60	0.015	
889.50	0.015	
890.30	0.015	
891.10	0.015	
892.00	0.015	
892.80	0.015	
893.60	0.015	
894.40	0.015	
895.30	0.015	
896.10	0.015	
896.90	0.015	
897.80	0.015	
898.60	0.015	
899.40	0.015	
Vernier Format 2
act7_187.txt 6/30/116 15:2:34
Run 20
Wavelength	Intensity	
W	I	
nm	rel	

380.50	0.016	
381.30	0.016	
382.20	0.016	
383.10	0.016	
384.00	0.016	
384.90	0.016	
385.80	0.016	
386.70	0.016	
387.60	0.016	
388.50	0.016	
389.40	0.016	
390.20	0.016	
391.10	0.016	
392.00	0.016	
392.90	0.016	
393.80	0.016	
394.70	0.016	
395.60	0.016	
396.50	0.016	
397.40	0.016	
398.30	0.016	
399.10	0.016	
400.00	0.016	
400.90	0.016	
401.80	0.016	
402.70	0.016	
403.60	0.016	
404.50	0.016	
405.40	0.016	
406.30	0.016	
407.20	0.016	
408.00	0.016	
408.90	0.016	
409.80	0.016	
410.70	0.016	
411.60	0.016	
412.50	0.016	
413.40	0.016	
414.30	0.017	
415.20	0.017	
416.00	0.017	
416.90	0.017	
417.80	0.017	
418.70	0.017	
419.60	0.017	
420.50	0.017	
421.40	0.017	
422.30	0.017	
423.20	0.017	
424.10	0.017	
424.90	0.017	
425.80	0.017	
426.70	0.017	
427.60	0.017	
428.50	0.018	
429.40	0.018	
430.30	0.018	
431.20	0.018	
432.10	0.018	
433.00	0.018	
433.80	0.018	
434.70	0.018	
435.60	0.018	
436.50	0.018	
437.40	0.018	
438.30	0.019	
439.20	0.018	
440.10	0.018	
441.00	0.018	
441.90	0.018	
442.70	0.018	
443.60	0.018	
444.50	0.018	
445.40	0.019	
446.30	0.019	
447.20	0.019	
448.10	0.019	
449.00	0.019	
449.90	0.018	
450.80	0.019	
451.60	0.019	
452.50	0.019	
453.40	0.019	
454.30	0.019	
455.20	0.019	
456.10	0.019	
457.00	0.019	
457.90	0.019	
458.80	0.019	
459.60	0.019	
460.50	0.019	
461.40	0.019	
462.30	0.020	
463.20	0.020	
464.10	0.020	
465.00	0.020	
465.90	0.020	
466.80	0.020	
467.70	0.020	
468.50	0.020	
469.40	0.020	
470.30	0.019	
471.20	0.020	
472.10	0.020	
473.00	0.020	
473.90	0.020	
474.80	0.020	
475.70	0.020	
476.60	0.020	
477.40	0.020	
478.30	0.020	
479.20	0.020	
480.10	0.021	
481.00	0.021	
481.90	0.021	
482.80	0.021	
483.70	0.021	
484.60	0.021	
485.50	0.021	
486.30	0.021	
487.20	0.022	
488.10	0.022	
489.00	0.022	
489.90	0.022	
490.80	0.023	
491.70	0.023	
492.60	0.023	
493.50	0.024	
494.40	0.024	
495.20	0.024	
496.10	0.024	
497.00	0.025	
497.90	0.026	
498.80	0.026	
499.70	0.026	
500.60	0.027	
501.50	0.028	
502.40	0.029	
503.20	0.029	
504.10	0.030	
505.00	0.031	
505.90	0.032	
506.80	0.032	
507.70	0.033	
508.60	0.034	
509.50	0.035	
510.40	0.036	
511.30	0.037	
512.20	0.039	
513.00	0.040	
513.80	0.041	
514.60	0.042	
515.50	0.044	
516.30	0.045	
517.10	0.046	
517.90	0.047	
518.80	0.049	
519.60	0.050	
520.40	0.051	
521.20	0.052	
522.10	0.053	
522.90	0.053	
523.70	0.054	
524.50	0.054	
525.40	0.054	
526.20	0.054	
527.00	0.054	
527.80	0.054	
528.70	0.054	
529.50	0.054	
530.30	0.053	
531.10	0.053	
532.00	0.052	
532.80	0.051	
533.60	0.051	
534.50	0.050	
535.30	0.049	
536.10	0.048	
536.90	0.048	
537.80	0.047	
538.60	0.047	
539.40	0.046	
540.20	0.046	
541.10	0.045	
541.90	0.045	
542.70	0.044	
543.50	0.044	
544.40	0.044	
545.20	0.043	
546.00	0.043	
546.80	0.042	
547.70	0.042	
548.50	0.042	
549.30	0.041	
550.10	0.041	
551.00	0.041	
551.80	0.040	
552.60	0.040	
553.50	0.039	
554.30	0.039	
555.10	0.039	
555.90	0.039	
556.80	0.039	
557.60	0.039	
558.40	0.039	
559.20	0.039	
560.10	0.038	
560.90	0.038	
561.70	0.038	
562.50	0.038	
563.40	0.037	
564.20	0.037	
565.00	0.037	
565.80	0.037	
566.70	0.037	
567.50	0.036	
568.30	0.036	
569.10	0.035	
570.00	0.035	
570.80	0.034	
571.60	0.034	
572.40	0.033	
573.30	0.033	
574.10	0.032	
574.90	0.032	
575.80	0.031	
576.60	0.030	
577.40	0.029	
578.20	0.029	
579.10	0.028	
579.90	0.028	
580.70	0.027	
581.50	0.026	
582.40	0.026	
583.20	0.025	
584.00	0.025	
584.80	0.024	
585.70	0.024	
586.50	0.024	
587.30	0.024	
588.10	0.023	
588.90	0.023	
589.60	0.023	
590.40	0.022	
591.10	0.022	
591.90	0.021	
592.60	0.021	
593.40	0.021	
594.10	0.020	
594.90	0.020	
595.60	0.020	
596.40	0.019	
597.10	0.019	
597.90	0.019	
598.60	0.019	
599.40	0.019	
600.10	0.018	
600.90	0.018	
601.60	0.018	
602.40	0.018	
603.10	0.018	
603.90	0.018	
604.60	0.018	
605.40	0.018	
606.10	0.018	
606.90	0.018	
607.70	0.018	
608.40	0.017	
609.20	0.017	
609.90	0.017	
610.70	0.016	
611.40	0.017	
612.20	0.016	
612.90	0.017	
613.70	0.017	
614.40	0.017	
615.20	0.017	
615.90	0.017	
616.70	0.017	
617.40	0.016	
618.20	0.016	
618.90	0.016	
619.70	0.016	
620.40	0.016	
621.20	0.016	
621.90	0.016	
622.70	0.016	
623.40	0.016	
624.20	0.016	
624.90	0.016	
625.70	0.016	
626.40	0.016	
627.20	0.016	
627.90	0.016	
628.70	0.016	
629.40	0.016	
630.20	0.016	
630.90	0.016	
631.70	0.016	
632.40	0.016	
633.20	0.016	
633.90	0.016	
634.70	0.016	
635.40	0.016	
636.20	0.016	
636.90	0.016	
637.70	0.016	
638.40	0.016	
639.20	0.016	
639.90	0.016	
640.70	0.016	
641.40	0.016	
642.20	0.016	
642.90	0.016	
643.70	0.016	
644.50	0.015	
645.20	0.015	
646.00	0.016	
646.70	0.015	
647.50	0.015	
648.20	0.015	
649.00	0.016	
649.70	0.016	
650.50	0.016	
651.20	0.016	
652.00	0.016	
652.70	0.016	
653.50	0.016	
654.20	0.016	
655.00	0.016	
655.70	0.016	
656.50	0.016	
657.20	0.016	
658.00	0.016	
658.70	0.016	
659.50	0.016	
660.20	0.016	
661.00	0.016	
661.70	0.016	
662.50	0.016	
663.20	0.016	
664.00	0.016	
664.70	0.016	
665.50	0.016	
666.20	0.016	
667.00	0.016	
667.80	0.016	
668.50	0.016	
669.30	0.016	
670.00	0.016	
670.80	0.016	
671.60	0.016	
672.30	0.016	
673.10	0.016	
673.90	0.016	
674.60	0.016	
675.40	0.016	
676.20	0.016	
676.90	0.016	
677.70	0.016	
678.50	0.016	
679.20	0.016	
680.00	0.016	
680.70	0.015	
681.50	0.016	
682.30	0.016	
683.00	0.016	
683.80	0.016	
684.60	0.016	
685.30	0.016	
686.10	0.016	
686.90	0.016	
687.60	0.016	
688.40	0.016	
689.20	0.016	
689.90	0.016	
690.70	0.015	
691.50	0.015	
692.20	0.015	
693.00	0.015	
693.70	0.015	
694.50	0.015	
695.30	0.015	
696.00	0.015	
696.80	0.015	
697.60	0.016	
698.30	0.016	
699.10	0.016	
699.90	0.016	
700.60	0.016	
701.40	0.016	
702.20	0.016	
702.90	0.016	
703.70	0.016	
704.50	0.016	
705.20	0.016	
706.00	0.016	
706.80	0.016	
707.50	0.016	
708.30	0.016	
709.10	0.016	
709.90	0.016	
710.70	0.016	
711.50	0.016	
712.20	0.016	
713.00	0.016	
713.80	0.016	
714.60	0.016	
715.40	0.016	
716.20	0.016	
716.90	0.015	
717.70	0.015	
718.50	0.015	
719.30	0.016	
720.10	0.016	
720.90	0.015	
721.60	0.016	
722.40	0.016	
723.20	0.016	
724.00	0.016	
724.80	0.016	
725.60	0.016	
726.30	0.016	
727.10	0.016	
727.90	0.016	
728.70	0.016	
729.50	0.016	
730.30	0.016	
731.00	0.016	
731.80	0.016	
732.60	0.016	
733.40	0.016	
734.20	0.016	
735.00	0.016	
735.70	0.016	
736.50	0.016	
737.30	0.016	
738.10	0.016	
738.90	0.016	
739.70	0.016	
740.40	0.016	
741.20	0.015	
742.00	0.015	
742.80	0.015	
743.60	0.015	
744.40	0.015	
745.10	0.015	
745.90	0.016	
746.70	0.016	
747.50	0.016	
748.30	0.016	
749.10	0.015	
749.80	0.015	
750.60	0.015	
751.40	0.015	
752.20	0.015	
753.00	0.015	
753.80	0.015	
754.50	0.015	
755.30	0.015	
756.10	0.015	
756.90	0.015	
757.70	0.015	
758.50	0.015	
759.30	0.015	
760.00	0.015	
760.80	0.015	
761.60	0.015	
762.40	0.015	
763.20	0.015	
764.00	0.015	
764.70	0.015	
765.50	0.015	
766.30	0.016	
767.10	0.016	
767.90	0.015	
768.70	0.015	
769.40	0.015	
770.20	0.015	
771.00	0.015	
771.80	0.015	
772.60	0.015	
773.40	0.015	
774.10	0.015	
774.90	0.016	
775.70	0.016	
776.50	0.016	
777.30	0.016	
778.10	0.016	
778.80	0.016	
779.60	0.016	
780.40	0.016	
781.20	0.016	
782.00	0.016	
782.80	0.016	
783.50	0.016	
784.30	0.016	
785.10	0.015	
785.90	0.015	
786.70	0.015	
787.50	0.015	
788.20	0.015	
789.00	0.015	
789.80	0.015	
790.60	0.016	
791.40	0.016	
792.20	0.016	
792.90	0.016	
793.70	0.016	
794.50	0.016	
795.30	0.016	
796.10	0.016	
796.90	0.016	
797.60	0.016	
798.40	0.016	
799.20	0.016	
800.00	0.016	
800.80	0.016	
801.60	0.016	
802.30	0.015	
803.10	0.015	
803.90	0.015	
804.70	0.015	
805.50	0.015	
806.30	0.015	
807.10	0.015	
807.80	0.015	
808.60	0.016	
809.40	0.016	
810.20	0.016	
811.00	0.016	
811.80	0.016	
812.50	0.015	
813.30	0.016	
814.10	0.015	
814.90	0.015	
815.70	0.015	
816.50	0.016	
817.20	0.016	
818.00	0.016	
818.80	0.016	
819.60	0.016	
820.40	0.016	
821.20	0.016	
821.90	0.016	
822.70	0.016	
823.50	0.016	
824.30	0.016	
825.10	0.016	
825.90	0.016	
826.60	0.016	
827.40	0.016	
828.20	0.016	
829.00	0.015	
829.80	0.015	
830.60	0.016	
831.30	0.016	
832.20	0.016	
833.00	0.016	
833.80	0.016	
834.60	0.016	
835.50	0.016	
836.30	0.016	
837.10	0.016	
838.00	0.016	
838.80	0.016	
839.60	0.016	
840.50	0.016	
841.30	0.016	
842.10	0.016	
842.90	0.016	
843.80	0.016	
844.60	0.015	
845.40	0.015	
846.30	0.015	
847.10	0.016	
847.90	0.016	
848.80	0.016	
849.60	0.016	
850.40	0.016	
851.30	0.016	
852.10	0.015	
852.90	0.015	
853.70	0.016	
854.60	0.016	
855.40	0.016	
856.20	0.016	
857.10	0.016	
857.90	0.016	
858.70	0.016	
859.60	0.016	
860.40	0.016	
861.20	0.016	
862.10	0.016	
862.90	0.015	
863.70	0.016	
864.50	0.016	
865.40	0.016	
866.20	0.016	
867.00	0.015	
867.90	0.015	
868.70	0.015	
869.50	0.015	
870.40	0.015	
871.20	0.015	
872.00	0.015	
872.80	0.016	
873.70	0.016	
874.50	0.016	
875.30	0.016	
876.20	0.016	
877.00	0.016	
877.80	0.016	
878.70	0.015	
879.50	0.016	
880.30	0.016	
881.20	0.015	
882.00	0.015	
882.80	0.015	
883.60	0.015	
884.50	0.015	
885.30	0.015	
886.10	0.015	
887.00	0.015	
887.80	0.015	
888.60	0.015	
889.50	0.015	
890.30	0.015	
891.10	0.015	
892.00	0.015	
892.80	0.015	
893.60	0.015	
894.40	0.015	
895.30	0.016	
896.10	0.016	
896.90	0.016	
897.80	0.016	
898.60	0.016	
899.40	0.015	
Vernier Format 2
act7_187.txt 6/30/116 15:2:35
Run 21
Wavelength	Intensity	
W	I	
nm	rel	

380.50	0.016	
381.30	0.016	
382.20	0.016	
383.10	0.016	
384.00	0.017	
384.90	0.016	
385.80	0.017	
386.70	0.016	
387.60	0.017	
388.50	0.017	
389.40	0.017	
390.20	0.017	
391.10	0.017	
392.00	0.017	
392.90	0.017	
393.80	0.017	
394.70	0.017	
395.60	0.017	
396.50	0.017	
397.40	0.017	
398.30	0.018	
399.10	0.018	
400.00	0.018	
400.90	0.018	
401.80	0.018	
402.70	0.018	
403.60	0.018	
404.50	0.019	
405.40	0.019	
406.30	0.019	
407.20	0.019	
408.00	0.019	
408.90	0.020	
409.80	0.020	
410.70	0.021	
411.60	0.021	
412.50	0.022	
413.40	0.022	
414.30	0.022	
415.20	0.023	
416.00	0.023	
416.90	0.024	
417.80	0.025	
418.70	0.025	
419.60	0.026	
420.50	0.027	
421.40	0.027	
422.30	0.028	
423.20	0.029	
424.10	0.030	
424.90	0.031	
425.80	0.031	
426.70	0.032	
427.60	0.033	
428.50	0.034	
429.40	0.034	
430.30	0.035	
431.20	0.036	
432.10	0.037	
433.00	0.038	
433.80	0.039	
434.70	0.040	
435.60	0.041	
436.50	0.042	
437.40	0.043	
438.30	0.045	
439.20	0.046	
440.10	0.047	
441.00	0.048	
441.90	0.049	
442.70	0.050	
443.60	0.050	
444.50	0.050	
445.40	0.050	
446.30	0.049	
447.20	0.049	
448.10	0.047	
449.00	0.046	
449.90	0.044	
450.80	0.042	
451.60	0.040	
452.50	0.038	
453.40	0.037	
454.30	0.035	
455.20	0.033	
456.10	0.032	
457.00	0.031	
457.90	0.029	
458.80	0.028	
459.60	0.027	
460.50	0.026	
461.40	0.026	
462.30	0.025	
463.20	0.025	
464.10	0.024	
465.00	0.024	
465.90	0.024	
466.80	0.023	
467.70	0.023	
468.50	0.023	
469.40	0.022	
470.30	0.022	
471.20	0.022	
472.10	0.022	
473.00	0.022	
473.90	0.021	
474.80	0.021	
475.70	0.021	
476.60	0.020	
477.40	0.021	
478.30	0.020	
479.20	0.020	
480.10	0.020	
481.00	0.021	
481.90	0.021	
482.80	0.021	
483.70	0.021	
484.60	0.021	
485.50	0.020	
486.30	0.020	
487.20	0.020	
488.10	0.020	
489.00	0.020	
489.90	0.020	
490.80	0.020	
491.70	0.020	
492.60	0.020	
493.50	0.020	
494.40	0.020	
495.20	0.020	
496.10	0.020	
497.00	0.020	
497.90	0.020	
498.80	0.020	
499.70	0.020	
500.60	0.020	
501.50	0.021	
502.40	0.021	
503.20	0.021	
504.10	0.021	
505.00	0.021	
505.90	0.021	
506.80	0.020	
507.70	0.020	
508.60	0.020	
509.50	0.020	
510.40	0.020	
511.30	0.020	
512.20	0.020	
513.00	0.020	
513.80	0.020	
514.60	0.020	
515.50	0.020	
516.30	0.020	
517.10	0.020	
517.90	0.020	
518.80	0.020	
519.60	0.020	
520.40	0.019	
521.20	0.019	
522.10	0.019	
522.90	0.019	
523.70	0.019	
524.50	0.018	
525.40	0.018	
526.20	0.018	
527.00	0.018	
527.80	0.018	
528.70	0.017	
529.50	0.017	
530.30	0.017	
531.10	0.017	
532.00	0.017	
532.80	0.017	
533.60	0.017	
534.50	0.017	
535.30	0.017	
536.10	0.017	
536.90	0.017	
537.80	0.017	
538.60	0.016	
539.40	0.016	
540.20	0.016	
541.10	0.016	
541.90	0.016	
542.70	0.016	
543.50	0.016	
544.40	0.016	
545.20	0.016	
546.00	0.016	
546.80	0.016	
547.70	0.016	
548.50	0.016	
549.30	0.016	
550.10	0.016	
551.00	0.016	
551.80	0.016	
552.60	0.016	
553.50	0.016	
554.30	0.016	
555.10	0.016	
555.90	0.016	
556.80	0.016	
557.60	0.016	
558.40	0.016	
559.20	0.016	
560.10	0.016	
560.90	0.016	
561.70	0.016	
562.50	0.016	
563.40	0.016	
564.20	0.016	
565.00	0.016	
565.80	0.016	
566.70	0.016	
567.50	0.016	
568.30	0.016	
569.10	0.016	
570.00	0.016	
570.80	0.016	
571.60	0.016	
572.40	0.016	
573.30	0.016	
574.10	0.016	
574.90	0.016	
575.80	0.016	
576.60	0.016	
577.40	0.016	
578.20	0.016	
579.10	0.016	
579.90	0.016	
580.70	0.016	
581.50	0.016	
582.40	0.016	
583.20	0.016	
584.00	0.016	
584.80	0.016	
585.70	0.016	
586.50	0.016	
587.30	0.016	
588.10	0.016	
588.90	0.016	
589.60	0.015	
590.40	0.016	
591.10	0.016	
591.90	0.016	
592.60	0.016	
593.40	0.016	
594.10	0.016	
594.90	0.016	
595.60	0.016	
596.40	0.016	
597.10	0.016	
597.90	0.015	
598.60	0.015	
599.40	0.015	
600.10	0.015	
600.90	0.015	
601.60	0.015	
602.40	0.015	
603.10	0.016	
603.90	0.016	
604.60	0.016	
605.40	0.016	
606.10	0.016	
606.90	0.016	
607.70	0.016	
608.40	0.016	
609.20	0.016	
609.90	0.016	
610.70	0.015	
611.40	0.015	
612.20	0.015	
612.90	0.015	
613.70	0.015	
614.40	0.015	
615.20	0.015	
615.90	0.015	
616.70	0.016	
617.40	0.016	
618.20	0.016	
618.90	0.016	
619.70	0.015	
620.40	0.015	
621.20	0.015	
621.90	0.015	
622.70	0.015	
623.40	0.015	
624.20	0.015	
624.90	0.015	
625.70	0.016	
626.40	0.016	
627.20	0.016	
627.90	0.016	
628.70	0.016	
629.40	0.016	
630.20	0.016	
630.90	0.015	
631.70	0.015	
632.40	0.015	
633.20	0.015	
633.90	0.015	
634.70	0.016	
635.40	0.016	
636.20	0.016	
636.90	0.016	
637.70	0.016	
638.40	0.016	
639.20	0.016	
639.90	0.016	
640.70	0.016	
641.40	0.016	
642.20	0.016	
642.90	0.016	
643.70	0.016	
644.50	0.016	
645.20	0.016	
646.00	0.016	
646.70	0.016	
647.50	0.016	
648.20	0.016	
649.00	0.016	
649.70	0.015	
650.50	0.015	
651.20	0.015	
652.00	0.015	
652.70	0.015	
653.50	0.015	
654.20	0.015	
655.00	0.015	
655.70	0.015	
656.50	0.015	
657.20	0.015	
658.00	0.015	
658.70	0.015	
659.50	0.015	
660.20	0.015	
661.00	0.015	
661.70	0.015	
662.50	0.015	
663.20	0.015	
664.00	0.015	
664.70	0.015	
665.50	0.015	
666.20	0.015	
667.00	0.015	
667.80	0.015	
668.50	0.016	
669.30	0.015	
670.00	0.015	
670.80	0.015	
671.60	0.016	
672.30	0.016	
673.10	0.015	
673.90	0.015	
674.60	0.015	
675.40	0.015	
676.20	0.015	
676.90	0.015	
677.70	0.015	
678.50	0.015	
679.20	0.015	
680.00	0.015	
680.70	0.015	
681.50	0.015	
682.30	0.015	
683.00	0.015	
683.80	0.016	
684.60	0.016	
685.30	0.016	
686.10	0.016	
686.90	0.016	
687.60	0.016	
688.40	0.015	
689.20	0.016	
689.90	0.016	
690.70	0.016	
691.50	0.016	
692.20	0.016	
693.00	0.016	
693.70	0.016	
694.50	0.016	
695.30	0.015	
696.00	0.015	
696.80	0.015	
697.60	0.015	
698.30	0.015	
699.10	0.015	
699.90	0.015	
700.60	0.015	
701.40	0.015	
702.20	0.015	
702.90	0.015	
703.70	0.015	
704.50	0.015	
705.20	0.015	
706.00	0.015	
706.80	0.015	
707.50	0.015	
708.30	0.015	
709.10	0.015	
709.90	0.015	
710.70	0.015	
711.50	0.015	
712.20	0.015	
713.00	0.015	
713.80	0.016	
714.60	0.015	
715.40	0.015	
716.20	0.015	
716.90	0.015	
717.70	0.015	
718.50	0.015	
719.30	0.015	
720.10	0.015	
720.90	0.015	
721.60	0.015	
722.40	0.015	
723.20	0.015	
724.00	0.015	
724.80	0.015	
725.60	0.015	
726.30	0.015	
727.10	0.015	
727.90	0.015	
728.70	0.015	
729.50	0.015	
730.30	0.015	
731.00	0.015	
731.80	0.015	
732.60	0.015	
733.40	0.015	
734.20	0.015	
735.00	0.015	
735.70	0.016	
736.50	0.015	
737.30	0.015	
738.10	0.015	
738.90	0.015	
739.70	0.015	
740.40	0.015	
741.20	0.015	
742.00	0.015	
742.80	0.015	
743.60	0.015	
744.40	0.015	
745.10	0.015	
745.90	0.015	
746.70	0.016	
747.50	0.015	
748.30	0.015	
749.10	0.015	
749.80	0.015	
750.60	0.015	
751.40	0.015	
752.20	0.015	
753.00	0.015	
753.80	0.015	
754.50	0.015	
755.30	0.015	
756.10	0.015	
756.90	0.015	
757.70	0.015	
758.50	0.015	
759.30	0.015	
760.00	0.015	
760.80	0.015	
761.60	0.015	
762.40	0.015	
763.20	0.015	
764.00	0.015	
764.70	0.015	
765.50	0.015	
766.30	0.015	
767.10	0.015	
767.90	0.015	
768.70	0.015	
769.40	0.015	
770.20	0.015	
771.00	0.015	
771.80	0.015	
772.60	0.015	
773.40	0.015	
774.10	0.015	
774.90	0.015	
775.70	0.015	
776.50	0.015	
777.30	0.015	
778.10	0.015	
778.80	0.015	
779.60	0.015	
780.40	0.015	
781.20	0.015	
782.00	0.015	
782.80	0.015	
783.50	0.015	
784.30	0.015	
785.10	0.015	
785.90	0.015	
786.70	0.015	
787.50	0.015	
788.20	0.015	
789.00	0.015	
789.80	0.015	
790.60	0.015	
791.40	0.015	
792.20	0.015	
792.90	0.015	
793.70	0.015	
794.50	0.015	
795.30	0.015	
796.10	0.015	
796.90	0.015	
797.60	0.015	
798.40	0.015	
799.20	0.015	
800.00	0.016	
800.80	0.016	
801.60	0.015	
802.30	0.015	
803.10	0.015	
803.90	0.015	
804.70	0.015	
805.50	0.015	
806.30	0.015	
807.10	0.015	
807.80	0.015	
808.60	0.015	
809.40	0.015	
810.20	0.015	
811.00	0.015	
811.80	0.015	
812.50	0.015	
813.30	0.015	
814.10	0.015	
814.90	0.015	
815.70	0.015	
816.50	0.015	
817.20	0.015	
818.00	0.015	
818.80	0.015	
819.60	0.015	
820.40	0.015	
821.20	0.015	
821.90	0.015	
822.70	0.015	
823.50	0.016	
824.30	0.016	
825.10	0.016	
825.90	0.016	
826.60	0.016	
827.40	0.016	
828.20	0.016	
829.00	0.015	
829.80	0.015	
830.60	0.015	
831.30	0.015	
832.20	0.015	
833.00	0.015	
833.80	0.015	
834.60	0.015	
835.50	0.015	
836.30	0.015	
837.10	0.015	
838.00	0.015	
838.80	0.015	
839.60	0.015	
840.50	0.015	
841.30	0.015	
842.10	0.015	
842.90	0.015	
843.80	0.015	
844.60	0.015	
845.40	0.015	
846.30	0.015	
847.10	0.016	
847.90	0.015	
848.80	0.015	
849.60	0.015	
850.40	0.015	
851.30	0.015	
852.10	0.015	
852.90	0.015	
853.70	0.015	
854.60	0.015	
855.40	0.015	
856.20	0.015	
857.10	0.015	
857.90	0.015	
858.70	0.015	
859.60	0.015	
860.40	0.015	
861.20	0.015	
862.10	0.015	
862.90	0.015	
863.70	0.015	
864.50	0.015	
865.40	0.015	
866.20	0.015	
867.00	0.015	
867.90	0.015	
868.70	0.015	
869.50	0.015	
870.40	0.015	
871.20	0.015	
872.00	0.015	
872.80	0.015	
873.70	0.015	
874.50	0.015	
875.30	0.015	
876.20	0.015	
877.00	0.015	
877.80	0.015	
878.70	0.015	
879.50	0.015	
880.30	0.015	
881.20	0.015	
882.00	0.015	
882.80	0.015	
883.60	0.015	
884.50	0.015	
885.30	0.015	
886.10	0.015	
887.00	0.015	
887.80	0.015	
888.60	0.015	
889.50	0.015	
890.30	0.015	
891.10	0.015	
892.00	0.015	
892.80	0.015	
893.60	0.015	
894.40	0.015	
895.30	0.015	
896.10	0.015	
896.90	0.015	
897.80	0.015	
898.60	0.015	
899.40	0.015	
Vernier Format 2
act7_187.txt 6/30/116 15:2:35
Run 22
Wavelength	Intensity	
W	I	
nm	rel	

380.50	0.015	
381.30	0.015	
382.20	0.015	
383.10	0.015	
384.00	0.015	
384.90	0.015	
385.80	0.015	
386.70	0.015	
387.60	0.015	
388.50	0.015	
389.40	0.015	
390.20	0.015	
391.10	0.015	
392.00	0.015	
392.90	0.015	
393.80	0.015	
394.70	0.015	
395.60	0.015	
396.50	0.015	
397.40	0.015	
398.30	0.015	
399.10	0.015	
400.00	0.015	
400.90	0.015	
401.80	0.015	
402.70	0.015	
403.60	0.015	
404.50	0.015	
405.40	0.015	
406.30	0.015	
407.20	0.015	
408.00	0.015	
408.90	0.015	
409.80	0.015	
410.70	0.015	
411.60	0.015	
412.50	0.015	
413.40	0.015	
414.30	0.015	
415.20	0.015	
416.00	0.015	
416.90	0.015	
417.80	0.015	
418.70	0.015	
419.60	0.015	
420.50	0.015	
421.40	0.015	
422.30	0.015	
423.20	0.015	
424.10	0.015	
424.90	0.015	
425.80	0.015	
426.70	0.015	
427.60	0.015	
428.50	0.015	
429.40	0.015	
430.30	0.015	
431.20	0.015	
432.10	0.015	
433.00	0.016	
433.80	0.015	
434.70	0.015	
435.60	0.016	
436.50	0.016	
437.40	0.015	
438.30	0.015	
439.20	0.015	
440.10	0.015	
441.00	0.015	
441.90	0.015	
442.70	0.015	
443.60	0.015	
444.50	0.015	
445.40	0.015	
446.30	0.015	
447.20	0.015	
448.10	0.015	
449.00	0.015	
449.90	0.015	
450.80	0.015	
451.60	0.015	
452.50	0.015	
453.40	0.015	
454.30	0.015	
455.20	0.015	
456.10	0.015	
457.00	0.015	
457.90	0.015	
458.80	0.015	
459.60	0.015	
460.50	0.015	
461.40	0.015	
462.30	0.015	
463.20	0.015	
464.10	0.015	
465.00	0.015	
465.90	0.015	
466.80	0.015	
467.70	0.015	
468.50	0.015	
469.40	0.015	
470.30	0.015	
471.20	0.015	
472.10	0.015	
473.00	0.015	
473.90	0.015	
474.80	0.015	
475.70	0.015	
476.60	0.015	
477.40	0.015	
478.30	0.016	
479.20	0.016	
480.10	0.015	
481.00	0.015	
481.90	0.015	
482.80	0.016	
483.70	0.015	
484.60	0.015	
485.50	0.015	
486.30	0.015	
487.20	0.015	
488.10	0.015	
489.00	0.015	
489.90	0.015	
490.80	0.016	
491.70	0.016	
492.60	0.016	
493.50	0.016	
494.40	0.016	
495.20	0.016	
496.10	0.016	
497.00	0.016	
497.90	0.015	
498.80	0.015	
499.70	0.016	
500.60	0.015	
501.50	0.015	
502.40	0.015	
503.20	0.015	
504.10	0.015	
505.00	0.015	
505.90	0.015	
506.80	0.015	
507.70	0.015	
508.60	0.015	
509.50	0.015	
510.40	0.015	
511.30	0.015	
512.20	0.015	
513.00	0.015	
513.80	0.015	
514.60	0.015	
515.50	0.015	
516.30	0.015	
517.10	0.015	
517.90	0.015	
518.80	0.015	
519.60	0.015	
520.40	0.015	
521.20	0.015	
522.10	0.015	
522.90	0.015	
523.70	0.015	
524.50	0.015	
525.40	0.015	
526.20	0.015	
527.00	0.016	
527.80	0.016	
528.70	0.016	
529.50	0.015	
530.30	0.016	
531.10	0.016	
532.00	0.016	
532.80	0.016	
533.60	0.016	
534.50	0.016	
535.30	0.016	
536.10	0.016	
536.90	0.016	
537.80	0.016	
538.60	0.015	
539.40	0.016	
540.20	0.016	
541.10	0.016	
541.90	0.016	
542.70	0.016	
543.50	0.016	
544.40	0.016	
545.20	0.016	
546.00	0.016	
546.80	0.016	
547.70	0.016	
548.50	0.016	
549.30	0.015	
550.10	0.016	
551.00	0.015	
551.80	0.015	
552.60	0.015	
553.50	0.015	
554.30	0.016	
555.10	0.016	
555.90	0.016	
556.80	0.016	
557.60	0.016	
558.40	0.016	
559.20	0.016	
560.10	0.016	
560.90	0.016	
561.70	0.016	
562.50	0.016	
563.40	0.016	
564.20	0.016	
565.00	0.016	
565.80	0.016	
566.70	0.016	
567.50	0.016	
568.30	0.016	
569.10	0.016	
570.00	0.016	
570.80	0.016	
571.60	0.016	
572.40	0.016	
573.30	0.016	
574.10	0.016	
574.90	0.016	
575.80	0.017	
576.60	0.017	
577.40	0.017	
578.20	0.017	
579.10	0.017	
579.90	0.017	
580.70	0.017	
581.50	0.017	
582.40	0.018	
583.20	0.018	
584.00	0.018	
584.80	0.018	
585.70	0.018	
586.50	0.018	
587.30	0.019	
588.10	0.019	
588.90	0.019	
589.60	0.019	
590.40	0.019	
591.10	0.019	
591.90	0.020	
592.60	0.020	
593.40	0.020	
594.10	0.020	
594.90	0.021	
595.60	0.021	
596.40	0.021	
597.10	0.021	
597.90	0.022	
598.60	0.022	
599.40	0.022	
600.10	0.022	
600.90	0.023	
601.60	0.023	
602.40	0.024	
603.10	0.024	
603.90	0.026	
604.60	0.027	
605.40	0.028	
606.10	0.030	
606.90	0.031	
607.70	0.034	
608.40	0.037	
609.20	0.040	
609.90	0.043	
610.70	0.046	
611.40	0.047	
612.20	0.047	
612.90	0.046	
613.70	0.043	
614.40	0.040	
615.20	0.036	
615.90	0.033	
616.70	0.031	
617.40	0.030	
618.20	0.029	
618.90	0.029	
619.70	0.029	
620.40	0.030	
621.20	0.031	
621.90	0.032	
622.70	0.034	
623.40	0.036	
624.20	0.039	
624.90	0.044	
625.70	0.055	
626.40	0.075	
627.20	0.103	
627.90	0.129	
628.70	0.148	
629.40	0.160	
630.20	0.169	
630.90	0.174	
631.70	0.168	
632.40	0.149	
633.20	0.125	
633.90	0.105	
634.70	0.090	
635.40	0.075	
636.20	0.058	
636.90	0.042	
637.70	0.031	
638.40	0.026	
639.20	0.024	
639.90	0.023	
640.70	0.022	
641.40	0.023	
642.20	0.023	
642.90	0.024	
643.70	0.025	
644.50	0.026	
645.20	0.026	
646.00	0.027	
646.70	0.026	
647.50	0.025	
648.20	0.024	
649.00	0.023	
649.70	0.022	
650.50	0.021	
651.20	0.021	
652.00	0.020	
652.70	0.020	
653.50	0.020	
654.20	0.019	
655.00	0.019	
655.70	0.019	
656.50	0.019	
657.20	0.018	
658.00	0.018	
658.70	0.018	
659.50	0.018	
660.20	0.018	
661.00	0.018	
661.70	0.018	
662.50	0.018	
663.20	0.017	
664.00	0.017	
664.70	0.017	
665.50	0.017	
666.20	0.017	
667.00	0.017	
667.80	0.017	
668.50	0.017	
669.30	0.017	
670.00	0.017	
670.80	0.017	
671.60	0.017	
672.30	0.017	
673.10	0.017	
673.90	0.017	
674.60	0.017	
675.40	0.017	
676.20	0.016	
676.90	0.016	
677.70	0.016	
678.50	0.016	
679.20	0.016	
680.00	0.016	
680.70	0.016	
681.50	0.016	
682.30	0.016	
683.00	0.016	
683.80	0.016	
684.60	0.016	
685.30	0.016	
686.10	0.016	
686.90	0.016	
687.60	0.016	
688.40	0.016	
689.20	0.016	
689.90	0.016	
690.70	0.016	
691.50	0.016	
692.20	0.016	
693.00	0.016	
693.70	0.016	
694.50	0.016	
695.30	0.016	
696.00	0.016	
696.80	0.016	
697.60	0.016	
698.30	0.016	
699.10	0.016	
699.90	0.016	
700.60	0.016	
701.40	0.016	
702.20	0.016	
702.90	0.016	
703.70	0.016	
704.50	0.016	
705.20	0.016	
706.00	0.016	
706.80	0.016	
707.50	0.016	
708.30	0.016	
709.10	0.016	
709.90	0.015	
710.70	0.015	
711.50	0.015	
712.20	0.016	
713.00	0.016	
713.80	0.016	
714.60	0.016	
715.40	0.016	
716.20	0.016	
716.90	0.015	
717.70	0.015	
718.50	0.015	
719.30	0.015	
720.10	0.015	
720.90	0.015	
721.60	0.015	
722.40	0.015	
723.20	0.015	
724.00	0.015	
724.80	0.015	
725.60	0.015	
726.30	0.015	
727.10	0.015	
727.90	0.015	
728.70	0.015	
729.50	0.015	
730.30	0.015	
731.00	0.015	
731.80	0.015	
732.60	0.015	
733.40	0.015	
734.20	0.015	
735.00	0.016	
735.70	0.015	
736.50	0.015	
737.30	0.015	
738.10	0.015	
738.90	0.015	
739.70	0.015	
740.40	0.015	
741.20	0.015	
742.00	0.016	
742.80	0.016	
743.60	0.015	
744.40	0.015	
745.10	0.015	
745.90	0.015	
746.70	0.015	
747.50	0.015	
748.30	0.015	
749.10	0.015	
749.80	0.015	
750.60	0.015	
751.40	0.015	
752.20	0.015	
753.00	0.015	
753.80	0.015	
754.50	0.015	
755.30	0.015	
756.10	0.015	
756.90	0.015	
757.70	0.015	
758.50	0.015	
759.30	0.015	
760.00	0.015	
760.80	0.015	
761.60	0.015	
762.40	0.015	
763.20	0.015	
764.00	0.015	
764.70	0.015	
765.50	0.015	
766.30	0.015	
767.10	0.015	
767.90	0.015	
768.70	0.015	
769.40	0.015	
770.20	0.015	
771.00	0.015	
771.80	0.015	
772.60	0.015	
773.40	0.015	
774.10	0.015	
774.90	0.015	
775.70	0.015	
776.50	0.015	
777.30	0.015	
778.10	0.015	
778.80	0.015	
779.60	0.015	
780.40	0.015	
781.20	0.015	
782.00	0.015	
782.80	0.015	
783.50	0.015	
784.30	0.015	
785.10	0.015	
785.90	0.015	
786.70	0.015	
787.50	0.015	
788.20	0.015	
789.00	0.015	
789.80	0.015	
790.60	0.015	
791.40	0.015	
792.20	0.015	
792.90	0.015	
793.70	0.015	
794.50	0.015	
795.30	0.015	
796.10	0.015	
796.90	0.015	
797.60	0.015	
798.40	0.015	
799.20	0.015	
800.00	0.015	
800.80	0.015	
801.60	0.015	
802.30	0.015	
803.10	0.015	
803.90	0.015	
804.70	0.015	
805.50	0.015	
806.30	0.015	
807.10	0.015	
807.80	0.015	
808.60	0.015	
809.40	0.015	
810.20	0.015	
811.00	0.015	
811.80	0.015	
812.50	0.015	
813.30	0.015	
814.10	0.015	
814.90	0.016	
815.70	0.015	
816.50	0.015	
817.20	0.015	
818.00	0.015	
818.80	0.015	
819.60	0.015	
820.40	0.015	
821.20	0.015	
821.90	0.015	
822.70	0.015	
823.50	0.016	
824.30	0.016	
825.10	0.016	
825.90	0.016	
826.60	0.016	
827.40	0.016	
828.20	0.016	
829.00	0.015	
829.80	0.015	
830.60	0.015	
831.30	0.015	
832.20	0.015	
833.00	0.015	
833.80	0.015	
834.60	0.015	
835.50	0.015	
836.30	0.015	
837.10	0.015	
838.00	0.015	
838.80	0.015	
839.60	0.015	
840.50	0.015	
841.30	0.015	
842.10	0.015	
842.90	0.015	
843.80	0.015	
844.60	0.015	
845.40	0.015	
846.30	0.015	
847.10	0.015	
847.90	0.015	
848.80	0.015	
849.60	0.015	
850.40	0.015	
851.30	0.015	
852.10	0.015	
852.90	0.015	
853.70	0.015	
854.60	0.015	
855.40	0.015	
856.20	0.015	
857.10	0.015	
857.90	0.015	
858.70	0.015	
859.60	0.015	
860.40	0.015	
861.20	0.015	
862.10	0.015	
862.90	0.015	
863.70	0.015	
864.50	0.015	
865.40	0.015	
866.20	0.015	
867.00	0.015	
867.90	0.015	
868.70	0.015	
869.50	0.015	
870.40	0.015	
871.20	0.015	
872.00	0.015	
872.80	0.015	
873.70	0.015	
874.50	0.015	
875.30	0.015	
876.20	0.015	
877.00	0.015	
877.80	0.015	
878.70	0.015	
879.50	0.015	
880.30	0.015	
881.20	0.015	
882.00	0.015	
882.80	0.015	
883.60	0.015	
884.50	0.015	
885.30	0.015	
886.10	0.015	
887.00	0.015	
887.80	0.015	
888.60	0.015	
889.50	0.015	
890.30	0.015	
891.10	0.015	
892.00	0.015	
892.80	0.015	
893.60	0.015	
894.40	0.015	
895.30	0.015	
896.10	0.015	
896.90	0.015	
897.80	0.015	
898.60	0.015	
899.40	0.015	
Vernier Format 2
act7_187.txt 6/30/116 15:2:35
Run 23
Wavelength	Intensity	
W	I	
nm	rel	

380.50	0.016	
381.30	0.016	
382.20	0.016	
383.10	0.016	
384.00	0.016	
384.90	0.016	
385.80	0.016	
386.70	0.016	
387.60	0.016	
388.50	0.016	
389.40	0.016	
390.20	0.016	
391.10	0.016	
392.00	0.016	
392.90	0.016	
393.80	0.016	
394.70	0.016	
395.60	0.016	
396.50	0.016	
397.40	0.016	
398.30	0.016	
399.10	0.016	
400.00	0.016	
400.90	0.016	
401.80	0.016	
402.70	0.016	
403.60	0.016	
404.50	0.016	
405.40	0.016	
406.30	0.016	
407.20	0.016	
408.00	0.016	
408.90	0.016	
409.80	0.016	
410.70	0.016	
411.60	0.016	
412.50	0.016	
413.40	0.016	
414.30	0.016	
415.20	0.016	
416.00	0.016	
416.90	0.016	
417.80	0.016	
418.70	0.016	
419.60	0.016	
420.50	0.016	
421.40	0.016	
422.30	0.016	
423.20	0.016	
424.10	0.016	
424.90	0.016	
425.80	0.016	
426.70	0.016	
427.60	0.016	
428.50	0.016	
429.40	0.016	
430.30	0.016	
431.20	0.016	
432.10	0.016	
433.00	0.016	
433.80	0.016	
434.70	0.016	
435.60	0.016	
436.50	0.016	
437.40	0.016	
438.30	0.016	
439.20	0.016	
440.10	0.017	
441.00	0.017	
441.90	0.017	
442.70	0.017	
443.60	0.017	
444.50	0.017	
445.40	0.017	
446.30	0.017	
447.20	0.017	
448.10	0.017	
449.00	0.017	
449.90	0.017	
450.80	0.017	
451.60	0.017	
452.50	0.017	
453.40	0.017	
454.30	0.017	
455.20	0.017	
456.10	0.017	
457.00	0.017	
457.90	0.017	
458.80	0.018	
459.60	0.018	
460.50	0.018	
461.40	0.018	
462.30	0.018	
463.20	0.018	
464.10	0.018	
465.00	0.018	
465.90	0.018	
466.80	0.018	
467.70	0.018	
468.50	0.019	
469.40	0.019	
470.30	0.019	
471.20	0.019	
472.10	0.019	
473.00	0.019	
473.90	0.019	
474.80	0.019	
475.70	0.019	
476.60	0.019	
477.40	0.020	
478.30	0.020	
479.20	0.020	
480.10	0.020	
481.00	0.020	
481.90	0.020	
482.80	0.020	
483.70	0.020	
484.60	0.020	
485.50	0.020	
486.30	0.021	
487.20	0.021	
488.10	0.021	
489.00	0.021	
489.90	0.021	
490.80	0.021	
491.70	0.022	
492.60	0.022	
493.50	0.022	
494.40	0.022	
495.20	0.023	
496.10	0.024	
497.00	0.024	
497.90	0.025	
498.80	0.026	
499.70	0.027	
500.60	0.027	
501.50	0.028	
502.40	0.029	
503.20	0.031	
504.10	0.032	
505.00	0.034	
505.90	0.036	
506.80	0.038	
507.70	0.041	
508.60	0.043	
509.50	0.046	
510.40	0.050	
511.30	0.053	
512.20	0.057	
513.00	0.061	
513.80	0.065	
514.60	0.070	
515.50	0.074	
516.30	0.079	
517.10	0.083	
517.90	0.089	
518.80	0.094	
519.60	0.099	
520.40	0.103	
521.20	0.108	
522.10	0.113	
522.90	0.117	
523.70	0.120	
524.50	0.123	
525.40	0.125	
526.20	0.127	
527.00	0.128	
527.80	0.128	
528.70	0.127	
529.50	0.126	
530.30	0.125	
531.10	0.123	
532.00	0.120	
532.80	0.118	
533.60	0.115	
534.50	0.112	
535.30	0.109	
536.10	0.106	
536.90	0.103	
537.80	0.100	
538.60	0.097	
539.40	0.094	
540.20	0.091	
541.10	0.088	
541.90	0.085	
542.70	0.082	
543.50	0.080	
544.40	0.078	
545.20	0.075	
546.00	0.073	
546.80	0.071	
547.70	0.069	
548.50	0.067	
549.30	0.065	
550.10	0.063	
551.00	0.061	
551.80	0.059	
552.60	0.057	
553.50	0.055	
554.30	0.054	
555.10	0.053	
555.90	0.051	
556.80	0.049	
557.60	0.048	
558.40	0.047	
559.20	0.046	
560.10	0.045	
560.90	0.043	
561.70	0.043	
562.50	0.041	
563.40	0.040	
564.20	0.039	
565.00	0.039	
565.80	0.038	
566.70	0.037	
567.50	0.036	
568.30	0.035	
569.10	0.034	
570.00	0.033	
570.80	0.032	
571.60	0.031	
572.40	0.030	
573.30	0.029	
574.10	0.028	
574.90	0.027	
575.80	0.027	
576.60	0.026	
577.40	0.026	
578.20	0.025	
579.10	0.024	
579.90	0.024	
580.70	0.023	
581.50	0.023	
582.40	0.023	
583.20	0.022	
584.00	0.022	
584.80	0.021	
585.70	0.021	
586.50	0.020	
587.30	0.020	
588.10	0.020	
588.90	0.020	
589.60	0.019	
590.40	0.019	
591.10	0.019	
591.90	0.019	
592.60	0.019	
593.40	0.019	
594.10	0.019	
594.90	0.018	
595.60	0.018	
596.40	0.018	
597.10	0.018	
597.90	0.017	
598.60	0.017	
599.40	0.017	
600.10	0.017	
600.90	0.017	
601.60	0.017	
602.40	0.017	
603.10	0.017	
603.90	0.017	
604.60	0.017	
605.40	0.017	
606.10	0.017	
606.90	0.017	
607.70	0.017	
608.40	0.017	
609.20	0.017	
609.90	0.017	
610.70	0.017	
611.40	0.017	
612.20	0.017	
612.90	0.017	
613.70	0.016	
614.40	0.016	
615.20	0.016	
615.90	0.016	
616.70	0.016	
617.40	0.016	
618.20	0.016	
618.90	0.016	
619.70	0.016	
620.40	0.016	
621.20	0.016	
621.90	0.016	
622.70	0.016	
623.40	0.016	
624.20	0.016	
624.90	0.016	
625.70	0.016	
626.40	0.016	
627.20	0.016	
627.90	0.016	
628.70	0.016	
629.40	0.016	
630.20	0.016	
630.90	0.016	
631.70	0.016	
632.40	0.016	
633.20	0.016	
633.90	0.016	
634.70	0.016	
635.40	0.016	
636.20	0.016	
636.90	0.016	
637.70	0.016	
638.40	0.016	
639.20	0.016	
639.90	0.016	
640.70	0.016	
641.40	0.016	
642.20	0.016	
642.90	0.016	
643.70	0.016	
644.50	0.016	
645.20	0.016	
646.00	0.016	
646.70	0.016	
647.50	0.016	
648.20	0.016	
649.00	0.015	
649.70	0.015	
650.50	0.015	
651.20	0.015	
652.00	0.015	
652.70	0.015	
653.50	0.015	
654.20	0.015	
655.00	0.015	
655.70	0.015	
656.50	0.015	
657.20	0.015	
658.00	0.015	
658.70	0.015	
659.50	0.015	
660.20	0.015	
661.00	0.015	
661.70	0.015	
662.50	0.015	
663.20	0.015	
664.00	0.015	
664.70	0.015	
665.50	0.015	
666.20	0.015	
667.00	0.015	
667.80	0.015	
668.50	0.016	
669.30	0.016	
670.00	0.016	
670.80	0.015	
671.60	0.015	
672.30	0.015	
673.10	0.015	
673.90	0.015	
674.60	0.015	
675.40	0.015	
676.20	0.015	
676.90	0.015	
677.70	0.015	
678.50	0.016	
679.20	0.015	
680.00	0.015	
680.70	0.016	
681.50	0.015	
682.30	0.016	
683.00	0.016	
683.80	0.016	
684.60	0.015	
685.30	0.016	
686.10	0.015	
686.90	0.015	
687.60	0.015	
688.40	0.016	
689.20	0.016	
689.90	0.016	
690.70	0.016	
691.50	0.016	
692.20	0.016	
693.00	0.016	
693.70	0.015	
694.50	0.015	
695.30	0.015	
696.00	0.015	
696.80	0.015	
697.60	0.015	
698.30	0.015	
699.10	0.015	
699.90	0.015	
700.60	0.015	
701.40	0.015	
702.20	0.015	
702.90	0.015	
703.70	0.015	
704.50	0.015	
705.20	0.015	
706.00	0.016	
706.80	0.016	
707.50	0.016	
708.30	0.016	
709.10	0.016	
709.90	0.016	
710.70	0.016	
711.50	0.016	
712.20	0.016	
713.00	0.016	
713.80	0.015	
714.60	0.015	
715.40	0.015	
716.20	0.015	
716.90	0.015	
717.70	0.015	
718.50	0.015	
719.30	0.015	
720.10	0.015	
720.90	0.015	
721.60	0.015	
722.40	0.015	
723.20	0.015	
724.00	0.015	
724.80	0.015	
725.60	0.015	
726.30	0.015	
727.10	0.015	
727.90	0.015	
728.70	0.015	
729.50	0.015	
730.30	0.015	
731.00	0.015	
731.80	0.015	
732.60	0.015	
733.40	0.015	
734.20	0.015	
735.00	0.015	
735.70	0.015	
736.50	0.015	
737.30	0.015	
738.10	0.015	
738.90	0.015	
739.70	0.015	
740.40	0.015	
741.20	0.015	
742.00	0.016	
742.80	0.016	
743.60	0.016	
744.40	0.016	
745.10	0.015	
745.90	0.016	
746.70	0.016	
747.50	0.015	
748.30	0.015	
749.10	0.016	
749.80	0.016	
750.60	0.016	
751.40	0.016	
752.20	0.015	
753.00	0.015	
753.80	0.015	
754.50	0.015	
755.30	0.015	
756.10	0.015	
756.90	0.015	
757.70	0.015	
758.50	0.015	
759.30	0.015	
760.00	0.015	
760.80	0.015	
761.60	0.015	
762.40	0.015	
763.20	0.015	
764.00	0.015	
764.70	0.015	
765.50	0.015	
766.30	0.015	
767.10	0.015	
767.90	0.015	
768.70	0.015	
769.40	0.015	
770.20	0.015	
771.00	0.015	
771.80	0.015	
772.60	0.015	
773.40	0.015	
774.10	0.015	
774.90	0.015	
775.70	0.015	
776.50	0.015	
777.30	0.015	
778.10	0.015	
778.80	0.015	
779.60	0.015	
780.40	0.015	
781.20	0.015	
782.00	0.015	
782.80	0.015	
783.50	0.015	
784.30	0.015	
785.10	0.015	
785.90	0.015	
786.70	0.015	
787.50	0.015	
788.20	0.015	
789.00	0.015	
789.80	0.015	
790.60	0.015	
791.40	0.015	
792.20	0.015	
792.90	0.015	
793.70	0.015	
794.50	0.015	
795.30	0.015	
796.10	0.015	
796.90	0.015	
797.60	0.015	
798.40	0.015	
799.20	0.015	
800.00	0.015	
800.80	0.015	
801.60	0.015	
802.30	0.015	
803.10	0.015	
803.90	0.015	
804.70	0.015	
805.50	0.015	
806.30	0.015	
807.10	0.015	
807.80	0.015	
808.60	0.015	
809.40	0.015	
810.20	0.015	
811.00	0.015	
811.80	0.015	
812.50	0.015	
813.30	0.015	
814.10	0.015	
814.90	0.015	
815.70	0.015	
816.50	0.015	
817.20	0.015	
818.00	0.015	
818.80	0.015	
819.60	0.015	
820.40	0.015	
821.20	0.015	
821.90	0.015	
822.70	0.015	
823.50	0.016	
824.30	0.016	
825.10	0.016	
825.90	0.016	
826.60	0.016	
827.40	0.016	
828.20	0.016	
829.00	0.015	
829.80	0.016	
830.60	0.016	
831.30	0.016	
832.20	0.016	
833.00	0.016	
833.80	0.016	
834.60	0.015	
835.50	0.016	
836.30	0.015	
837.10	0.015	
838.00	0.015	
838.80	0.015	
839.60	0.016	
840.50	0.015	
841.30	0.015	
842.10	0.015	
842.90	0.015	
843.80	0.015	
844.60	0.015	
845.40	0.015	
846.30	0.015	
847.10	0.015	
847.90	0.015	
848.80	0.015	
849.60	0.015	
850.40	0.015	
851.30	0.015	
852.10	0.015	
852.90	0.015	
853.70	0.015	
854.60	0.015	
855.40	0.015	
856.20	0.015	
857.10	0.015	
857.90	0.015	
858.70	0.015	
859.60	0.015	
860.40	0.015	
861.20	0.015	
862.10	0.015	
862.90	0.015	
863.70	0.015	
864.50	0.015	
865.40	0.015	
866.20	0.015	
867.00	0.015	
867.90	0.015	
868.70	0.015	
869.50	0.015	
870.40	0.015	
871.20	0.015	
872.00	0.015	
872.80	0.015	
873.70	0.015	
874.50	0.015	
875.30	0.015	
876.20	0.015	
877.00	0.015	
877.80	0.015	
878.70	0.015	
879.50	0.015	
880.30	0.015	
881.20	0.015	
882.00	0.015	
882.80	0.015	
883.60	0.015	
884.50	0.015	
885.30	0.015	
886.10	0.015	
887.00	0.015	
887.80	0.015	
888.60	0.015	
889.50	0.015	
890.30	0.015	
891.10	0.015	
892.00	0.015	
892.80	0.015	
893.60	0.015	
894.40	0.015	
895.30	0.015	
896.10	0.015	
896.90	0.015	
897.80	0.015	
898.60	0.015	
899.40	0.015	
Vernier Format 2
act7_187.txt 6/30/116 15:2:35
Run 24
Wavelength	Intensity	
W	I	
nm	rel	

380.50	0.017	
381.30	0.016	
382.20	0.016	
383.10	0.016	
384.00	0.016	
384.90	0.016	
385.80	0.016	
386.70	0.016	
387.60	0.016	
388.50	0.016	
389.40	0.016	
390.20	0.016	
391.10	0.016	
392.00	0.017	
392.90	0.017	
393.80	0.017	
394.70	0.017	
395.60	0.017	
396.50	0.017	
397.40	0.017	
398.30	0.017	
399.10	0.018	
400.00	0.018	
400.90	0.018	
401.80	0.018	
402.70	0.018	
403.60	0.018	
404.50	0.018	
405.40	0.019	
406.30	0.019	
407.20	0.019	
408.00	0.019	
408.90	0.019	
409.80	0.020	
410.70	0.020	
411.60	0.021	
412.50	0.021	
413.40	0.022	
414.30	0.022	
415.20	0.023	
416.00	0.024	
416.90	0.025	
417.80	0.026	
418.70	0.027	
419.60	0.028	
420.50	0.029	
421.40	0.031	
422.30	0.032	
423.20	0.034	
424.10	0.036	
424.90	0.038	
425.80	0.040	
426.70	0.041	
427.60	0.043	
428.50	0.045	
429.40	0.047	
430.30	0.049	
431.20	0.052	
432.10	0.054	
433.00	0.057	
433.80	0.059	
434.70	0.061	
435.60	0.065	
436.50	0.068	
437.40	0.071	
438.30	0.075	
439.20	0.078	
440.10	0.082	
441.00	0.086	
441.90	0.089	
442.70	0.092	
443.60	0.095	
444.50	0.097	
445.40	0.098	
446.30	0.098	
447.20	0.097	
448.10	0.095	
449.00	0.092	
449.90	0.088	
450.80	0.083	
451.60	0.078	
452.50	0.072	
453.40	0.067	
454.30	0.061	
455.20	0.056	
456.10	0.052	
457.00	0.048	
457.90	0.044	
458.80	0.041	
459.60	0.038	
460.50	0.036	
461.40	0.034	
462.30	0.032	
463.20	0.031	
464.10	0.030	
465.00	0.029	
465.90	0.028	
466.80	0.027	
467.70	0.026	
468.50	0.025	
469.40	0.025	
470.30	0.024	
471.20	0.024	
472.10	0.023	
473.00	0.023	
473.90	0.022	
474.80	0.022	
475.70	0.022	
476.60	0.021	
477.40	0.021	
478.30	0.021	
479.20	0.021	
480.10	0.020	
481.00	0.020	
481.90	0.020	
482.80	0.020	
483.70	0.020	
484.60	0.019	
485.50	0.019	
486.30	0.019	
487.20	0.019	
488.10	0.019	
489.00	0.019	
489.90	0.019	
490.80	0.019	
491.70	0.019	
492.60	0.019	
493.50	0.019	
494.40	0.019	
495.20	0.019	
496.10	0.019	
497.00	0.018	
497.90	0.019	
498.80	0.019	
499.70	0.019	
500.60	0.019	
501.50	0.019	
502.40	0.019	
503.20	0.019	
504.10	0.019	
505.00	0.019	
505.90	0.019	
506.80	0.019	
507.70	0.019	
508.60	0.019	
509.50	0.019	
510.40	0.019	
511.30	0.019	
512.20	0.019	
513.00	0.019	
513.80	0.019	
514.60	0.019	
515.50	0.019	
516.30	0.019	
517.10	0.019	
517.90	0.019	
518.80	0.018	
519.60	0.018	
520.40	0.018	
521.20	0.018	
522.10	0.018	
522.90	0.018	
523.70	0.018	
524.50	0.018	
525.40	0.018	
526.20	0.018	
527.00	0.018	
527.80	0.017	
528.70	0.017	
529.50	0.017	
530.30	0.017	
531.10	0.017	
532.00	0.017	
532.80	0.017	
533.60	0.017	
534.50	0.017	
535.30	0.016	
536.10	0.016	
536.90	0.016	
537.80	0.016	
538.60	0.016	
539.40	0.016	
540.20	0.016	
541.10	0.016	
541.90	0.016	
542.70	0.016	
543.50	0.016	
544.40	0.016	
545.20	0.016	
546.00	0.016	
546.80	0.016	
547.70	0.016	
548.50	0.016	
549.30	0.016	
550.10	0.016	
551.00	0.016	
551.80	0.016	
552.60	0.016	
553.50	0.016	
554.30	0.016	
555.10	0.016	
555.90	0.016	
556.80	0.016	
557.60	0.016	
558.40	0.016	
559.20	0.016	
560.10	0.016	
560.90	0.016	
561.70	0.016	
562.50	0.016	
563.40	0.015	
564.20	0.016	
565.00	0.016	
565.80	0.016	
566.70	0.016	
567.50	0.016	
568.30	0.016	
569.10	0.016	
570.00	0.016	
570.80	0.016	
571.60	0.016	
572.40	0.016	
573.30	0.016	
574.10	0.016	
574.90	0.016	
575.80	0.016	
576.60	0.016	
577.40	0.016	
578.20	0.016	
579.10	0.016	
579.90	0.016	
580.70	0.016	
581.50	0.016	
582.40	0.015	
583.20	0.015	
584.00	0.015	
584.80	0.015	
585.70	0.015	
586.50	0.015	
587.30	0.015	
588.10	0.015	
588.90	0.015	
589.60	0.016	
590.40	0.015	
591.10	0.015	
591.90	0.015	
592.60	0.015	
593.40	0.015	
594.10	0.015	
594.90	0.015	
595.60	0.015	
596.40	0.015	
597.10	0.015	
597.90	0.015	
598.60	0.015	
599.40	0.015	
600.10	0.015	
600.90	0.015	
601.60	0.015	
602.40	0.015	
603.10	0.015	
603.90	0.016	
604.60	0.016	
605.40	0.016	
606.10	0.016	
606.90	0.015	
607.70	0.015	
608.40	0.015	
609.20	0.015	
609.90	0.015	
610.70	0.015	
611.40	0.015	
612.20	0.015	
612.90	0.015	
613.70	0.015	
614.40	0.015	
615.20	0.015	
615.90	0.015	
616.70	0.015	
617.40	0.015	
618.20	0.015	
618.90	0.015	
619.70	0.015	
620.40	0.015	
621.20	0.015	
621.90	0.015	
622.70	0.015	
623.40	0.015	
624.20	0.015	
624.90	0.015	
625.70	0.016	
626.40	0.016	
627.20	0.016	
627.90	0.016	
628.70	0.016	
629.40	0.016	
630.20	0.016	
630.90	0.016	
631.70	0.016	
632.40	0.016	
633.20	0.016	
633.90	0.016	
634.70	0.016	
635.40	0.015	
636.20	0.015	
636.90	0.015	
637.70	0.015	
638.40	0.015	
639.20	0.015	
639.90	0.015	
640.70	0.015	
641.40	0.015	
642.20	0.015	
642.90	0.015	
643.70	0.015	
644.50	0.016	
645.20	0.016	
646.00	0.016	
646.70	0.016	
647.50	0.016	
648.20	0.016	
649.00	0.015	
649.70	0.015	
650.50	0.015	
651.20	0.015	
652.00	0.015	
652.70	0.015	
653.50	0.015	
654.20	0.015	
655.00	0.015	
655.70	0.015	
656.50	0.015	
657.20	0.015	
658.00	0.015	
658.70	0.015	
659.50	0.015	
660.20	0.015	
661.00	0.015	
661.70	0.015	
662.50	0.015	
663.20	0.015	
664.00	0.015	
664.70	0.015	
665.50	0.015	
666.20	0.015	
667.00	0.015	
667.80	0.015	
668.50	0.015	
669.30	0.015	
670.00	0.015	
670.80	0.015	
671.60	0.015	
672.30	0.015	
673.10	0.015	
673.90	0.015	
674.60	0.015	
675.40	0.015	
676.20	0.015	
676.90	0.015	
677.70	0.015	
678.50	0.015	
679.20	0.015	
680.00	0.015	
680.70	0.015	
681.50	0.015	
682.30	0.015	
683.00	0.015	
683.80	0.015	
684.60	0.015	
685.30	0.015	
686.10	0.015	
686.90	0.015	
687.60	0.015	
688.40	0.015	
689.20	0.015	
689.90	0.015	
690.70	0.015	
691.50	0.015	
692.20	0.015	
693.00	0.015	
693.70	0.015	
694.50	0.015	
695.30	0.015	
696.00	0.015	
696.80	0.015	
697.60	0.015	
698.30	0.015	
699.10	0.015	
699.90	0.015	
700.60	0.015	
701.40	0.015	
702.20	0.015	
702.90	0.015	
703.70	0.015	
704.50	0.015	
705.20	0.015	
706.00	0.015	
706.80	0.015	
707.50	0.015	
708.30	0.015	
709.10	0.015	
709.90	0.015	
710.70	0.015	
711.50	0.016	
712.20	0.016	
713.00	0.015	
713.80	0.015	
714.60	0.015	
715.40	0.016	
716.20	0.016	
716.90	0.015	
717.70	0.015	
718.50	0.015	
719.30	0.015	
720.10	0.015	
720.90	0.015	
721.60	0.015	
722.40	0.015	
723.20	0.015	
724.00	0.015	
724.80	0.015	
725.60	0.015	
726.30	0.015	
727.10	0.015	
727.90	0.015	
728.70	0.015	
729.50	0.015	
730.30	0.015	
731.00	0.015	
731.80	0.015	
732.60	0.015	
733.40	0.015	
734.20	0.015	
735.00	0.015	
735.70	0.015	
736.50	0.015	
737.30	0.015	
738.10	0.015	
738.90	0.015	
739.70	0.015	
740.40	0.015	
741.20	0.015	
742.00	0.015	
742.80	0.015	
743.60	0.015	
744.40	0.015	
745.10	0.015	
745.90	0.015	
746.70	0.015	
747.50	0.015	
748.30	0.015	
749.10	0.015	
749.80	0.015	
750.60	0.015	
751.40	0.015	
752.20	0.015	
753.00	0.015	
753.80	0.015	
754.50	0.015	
755.30	0.015	
756.10	0.015	
756.90	0.015	
757.70	0.015	
758.50	0.015	
759.30	0.015	
760.00	0.015	
760.80	0.015	
761.60	0.015	
762.40	0.015	
763.20	0.015	
764.00	0.015	
764.70	0.015	
765.50	0.015	
766.30	0.015	
767.10	0.015	
767.90	0.015	
768.70	0.015	
769.40	0.015	
770.20	0.015	
771.00	0.015	
771.80	0.015	
772.60	0.015	
773.40	0.015	
774.10	0.015	
774.90	0.015	
775.70	0.015	
776.50	0.015	
777.30	0.015	
778.10	0.015	
778.80	0.015	
779.60	0.015	
780.40	0.015	
781.20	0.015	
782.00	0.015	
782.80	0.015	
783.50	0.015	
784.30	0.015	
785.10	0.015	
785.90	0.015	
786.70	0.015	
787.50	0.015	
788.20	0.015	
789.00	0.015	
789.80	0.015	
790.60	0.015	
791.40	0.015	
792.20	0.015	
792.90	0.015	
793.70	0.015	
794.50	0.015	
795.30	0.015	
796.10	0.015	
796.90	0.015	
797.60	0.015	
798.40	0.015	
799.20	0.015	
800.00	0.015	
800.80	0.015	
801.60	0.015	
802.30	0.015	
803.10	0.015	
803.90	0.015	
804.70	0.015	
805.50	0.015	
806.30	0.015	
807.10	0.015	
807.80	0.015	
808.60	0.015	
809.40	0.015	
810.20	0.015	
811.00	0.015	
811.80	0.015	
812.50	0.015	
813.30	0.015	
814.10	0.015	
814.90	0.015	
815.70	0.015	
816.50	0.015	
817.20	0.015	
818.00	0.015	
818.80	0.015	
819.60	0.015	
820.40	0.015	
821.20	0.015	
821.90	0.015	
822.70	0.015	
823.50	0.015	
824.30	0.015	
825.10	0.015	
825.90	0.015	
826.60	0.015	
827.40	0.015	
828.20	0.016	
829.00	0.015	
829.80	0.015	
830.60	0.015	
831.30	0.015	
832.20	0.015	
833.00	0.015	
833.80	0.015	
834.60	0.015	
835.50	0.015	
836.30	0.015	
837.10	0.015	
838.00	0.015	
838.80	0.015	
839.60	0.015	
840.50	0.015	
841.30	0.015	
842.10	0.015	
842.90	0.016	
843.80	0.016	
844.60	0.016	
845.40	0.016	
846.30	0.016	
847.10	0.015	
847.90	0.015	
848.80	0.015	
849.60	0.015	
850.40	0.015	
851.30	0.015	
852.10	0.015	
852.90	0.015	
853.70	0.015	
854.60	0.015	
855.40	0.015	
856.20	0.015	
857.10	0.015	
857.90	0.015	
858.70	0.015	
859.60	0.015	
860.40	0.015	
861.20	0.015	
862.10	0.015	
862.90	0.015	
863.70	0.015	
864.50	0.015	
865.40	0.015	
866.20	0.015	
867.00	0.015	
867.90	0.015	
868.70	0.015	
869.50	0.015	
870.40	0.015	
871.20	0.015	
872.00	0.015	
872.80	0.015	
873.70	0.015	
874.50	0.016	
875.30	0.016	
876.20	0.016	
877.00	0.015	
877.80	0.015	
878.70	0.015	
879.50	0.015	
880.30	0.015	
881.20	0.015	
882.00	0.015	
882.80	0.015	
883.60	0.015	
884.50	0.015	
885.30	0.015	
886.10	0.015	
887.00	0.015	
887.80	0.015	
888.60	0.015	
889.50	0.015	
890.30	0.015	
891.10	0.015	
892.00	0.015	
892.80	0.015	
893.60	0.015	
894.40	0.015	
895.30	0.015	
896.10	0.015	
896.90	0.015	
897.80	0.015	
898.60	0.015	
899.40	0.015